256	10
Fp1	Fp2	F3	F4	F7	F8	Fz	C3	C4	Cz	T3	T5	T4	T6	P3	P4	Pz	O1	O2
-22.7120088654917	-25.5572810803388	-23.715321544213	-24.8871294819562	-20.3683929900053	-24.3854731425956	-22.8805041245136	-22.7120088654917	-24.7186342229343	-25.8904421606775	-21.7086961867704	-18.6987581506066	-21.7086961867704	-23.2136652048524	-22.378847785153	-23.5506557228962	-21.7086961867704	-21.0385445883879	-23.8838168032349
-12.6750526405737	-18.028606552224	-14.5131827389944	-16.6883033554589	-7.82315506828412	-16.0219811947814	-12.8397184618906	-12.5065573815518	-16.3551422751202	-18.6987581506066	-10.3314367650874	-4.64472177309834	-10.4999320241093	-13.5098700602731	-11.8364057831693	-14.3485169176776	-10.833093104448	-9.32812408636606	-15.0148390783551
-15.183334337377	-19.8667366506447	-16.6883033554589	-18.6987581506066	-10.833093104448	-18.028606552224	-15.183334337377	-15.0148390783551	-18.3617676325627	-20.3683929900053	-13.1767089799344	-8.15631614862288	-13.1767089799344	-15.8534859357595	-14.3485169176776	-16.5236375341421	-13.5098700602731	-12.1733963012131	-17.0252938735027
-13.8468605783169	-18.8634239719234	-15.5164954177157	-17.5269502128634	-9.32812408636606	-17.0252938735027	-14.0115263996338	-13.678365319295	-17.1899596948196	-19.5335755703059	-11.6717399618524	-6.31818605020219	-11.8364057831693	-14.6816779980163	-13.0082137209125	-15.3518295963989	-12.0049010421912	-10.6645978454261	-16.0219811947814
-14.5131827389944	-19.5335755703059	-16.1866470160983	-18.1971018112459	-10.1629415060655	-17.6916160341802	-14.6816779980163	-14.5131827389944	-18.028606552224	-20.0352319096666	-12.5065573815518	-7.48616455024033	-12.8397184618906	-15.5164954177157	-13.8468605783169	-16.0219811947814	-13.0082137209125	-11.6717399618524	-16.5236375341421
-14.0115263996338	-19.2004144899672	-15.8534859357595	-17.8601112932021	-9.66128516670481	-17.1899596948196	-14.1800216586557	-14.0115263996338	-17.5269502128634	-19.7020708293278	-12.0049010421912	-6.81984238956282	-12.0049010421912	-14.8501732570382	-13.1767089799344	-15.5164954177157	-12.3380621225299	-11.0015883634699	-16.0219811947814
-14.3485169176776	-19.365080311284	-16.1866470160983	-18.1971018112459	-10.1629415060655	-17.5269502128634	-14.5131827389944	-14.3485169176776	-17.6916160341802	-20.0352319096666	-12.5065573815518	-7.32149872892347	-12.5065573815518	-15.183334337377	-13.678365319295	-16.0219811947814	-12.6750526405737	-11.3347494438086	-16.5236375341421
-14.1800216586557	-19.2004144899672	-15.8534859357595	-17.8601112932021	-9.82978042572671	-17.3584549538415	-14.3485169176776	-14.0115263996338	-17.5269502128634	-19.8667366506447	-12.1733963012131	-6.98450821087968	-12.3380621225299	-15.0148390783551	-13.3452042389563	-15.6849906767376	-12.5065573815518	-11.1700836224918	-16.3551422751202
-14.3485169176776	-19.365080311284	-16.0219811947814	-18.028606552224	-9.99827568474861	-17.5269502128634	-14.3485169176776	-14.3485169176776	-17.6916160341802	-19.8667366506447	-12.3380621225299	-7.15300346990158	-12.5065573815518	-15.183334337377	-13.5098700602731	-15.8534859357595	-12.6750526405737	-11.3347494438086	-16.3551422751202
-14.1800216586557	-19.2004144899672	-16.0219811947814	-18.028606552224	-9.82978042572671	-17.3584549538415	-14.3485169176776	-14.1800216586557	-17.6916160341802	-19.8667366506447	-12.3380621225299	-6.98450821087968	-12.3380621225299	-15.183334337377	-13.5098700602731	-15.6849906767376	-12.5065573815518	-11.3347494438086	-16.3551422751202
-14.1800216586557	-19.2004144899672	-16.0219811947814	-18.028606552224	-9.82978042572671	-17.5269502128634	-14.3485169176776	-14.1800216586557	-17.6916160341802	-19.8667366506447	-12.3380621225299	-7.15300346990158	-12.3380621225299	-15.183334337377	-13.5098700602731	-15.8534859357595	-12.6750526405737	-11.1700836224918	-16.3551422751202
-14.3485169176776	-19.2004144899672	-15.8534859357595	-18.028606552224	-9.82978042572671	-17.3584549538415	-14.3485169176776	-14.1800216586557	-17.6916160341802	-19.8667366506447	-12.3380621225299	-7.15300346990158	-12.3380621225299	-15.183334337377	-13.5098700602731	-15.8534859357595	-12.6750526405737	-11.1700836224918	-16.3551422751202
-14.3485169176776	-19.2004144899672	-15.8534859357595	-18.028606552224	-9.82978042572671	-17.3584549538415	-14.3485169176776	-14.1800216586557	-17.6916160341802	-19.8667366506447	-12.3380621225299	-6.98450821087968	-12.3380621225299	-15.183334337377	-13.5098700602731	-15.8534859357595	-12.5065573815518	-11.3347494438086	-16.3551422751202
-14.3485169176776	-19.365080311284	-16.0219811947814	-18.028606552224	-9.82978042572671	-17.3584549538415	-14.5131827389944	-14.1800216586557	-17.6916160341802	-19.8667366506447	-12.1733963012131	-6.98450821087968	-12.5065573815518	-15.183334337377	-13.5098700602731	-15.8534859357595	-12.5065573815518	-11.1700836224918	-16.3551422751202
-14.3485169176776	-19.2004144899672	-16.0219811947814	-18.028606552224	-9.82978042572671	-17.3584549538415	-14.3485169176776	-14.1800216586557	-17.6916160341802	-19.8667366506447	-12.3380621225299	-7.15300346990158	-12.3380621225299	-15.183334337377	-13.5098700602731	-15.8534859357595	-12.6750526405737	-11.3347494438086	-16.3551422751202
-14.3485169176776	-19.365080311284	-16.0219811947814	-18.028606552224	-9.99827568474861	-17.5269502128634	-14.3485169176776	-14.1800216586557	-17.6916160341802	-19.8667366506447	-12.3380621225299	-7.15300346990158	-12.3380621225299	-15.183334337377	-13.5098700602731	-15.8534859357595	-12.6750526405737	-11.3347494438086	-16.3551422751202
-14.3485169176776	-19.2004144899672	-15.8534859357595	-18.028606552224	-9.99827568474861	-17.3584549538415	-14.5131827389944	-14.1800216586557	-17.6916160341802	-19.8667366506447	-12.3380621225299	-6.98450821087968	-12.3380621225299	-15.183334337377	-13.5098700602731	-15.8534859357595	-12.6750526405737	-11.1700836224918	-16.3551422751202
-14.1800216586557	-19.2004144899672	-15.8534859357595	-17.8601112932021	-9.99827568474861	-17.5269502128634	-14.3485169176776	-14.1800216586557	-17.6916160341802	-19.8667366506447	-12.3380621225299	-7.15300346990158	-12.5065573815518	-15.183334337377	-13.5098700602731	-15.8534859357595	-12.6750526405737	-11.3347494438086	-16.5236375341421
-14.3485169176776	-19.2004144899672	-16.0219811947814	-17.8601112932021	-9.99827568474861	-17.3584549538415	-14.5131827389944	-14.1800216586557	-17.6916160341802	-19.8667366506447	-12.3380621225299	-7.15300346990158	-12.5065573815518	-15.183334337377	-13.678365319295	-15.6849906767376	-12.6750526405737	-11.3347494438086	-16.3551422751202
-14.1800216586557	-19.2004144899672	-16.0219811947814	-17.8601112932021	-9.82978042572671	-17.5269502128634	-14.3485169176776	-14.1800216586557	-17.6916160341802	-19.8667366506447	-12.3380621225299	-6.98450821087968	-12.3380621225299	-15.183334337377	-13.5098700602731	-15.8534859357595	-12.6750526405737	-11.1700836224918	-16.3551422751202
-14.1800216586557	-19.2004144899672	-16.0219811947814	-18.028606552224	-9.82978042572671	-17.3584549538415	-14.3485169176776	-14.1800216586557	-17.6916160341802	-19.8667366506447	-12.3380621225299	-7.15300346990158	-12.3380621225299	-15.183334337377	-13.5098700602731	-15.6849906767376	-12.6750526405737	-11.3347494438086	-16.3551422751202
-14.3485169176776	-19.2004144899672	-15.8534859357595	-18.028606552224	-9.82978042572671	-17.3584549538415	-14.3485169176776	-14.1800216586557	-17.6916160341802	-19.8667366506447	-12.3380621225299	-6.98450821087968	-12.3380621225299	-15.183334337377	-13.5098700602731	-15.8534859357595	-12.6750526405737	-11.1700836224918	-16.3551422751202
-14.3485169176776	-19.2004144899672	-15.8534859357595	-17.8601112932021	-9.99827568474861	-17.3584549538415	-14.3485169176776	-14.1800216586557	-17.6916160341802	-20.0352319096666	-12.3380621225299	-7.15300346990158	-12.3380621225299	-15.183334337377	-13.5098700602731	-15.6849906767376	-12.6750526405737	-11.1700836224918	-16.3551422751202
-14.1800216586557	-19.2004144899672	-15.8534859357595	-17.8601112932021	-9.82978042572671	-17.3584549538415	-14.3485169176776	-14.1800216586557	-17.6916160341802	-19.8667366506447	-12.1733963012131	-7.15300346990158	-12.3380621225299	-15.183334337377	-13.5098700602731	-15.6849906767376	-12.6750526405737	-11.1700836224918	-16.3551422751202
-14.3485169176776	-19.2004144899672	-15.8534859357595	-17.8601112932021	-9.82978042572671	-17.3584549538415	-14.3485169176776	-14.1800216586557	-17.6916160341802	-20.0352319096666	-12.3380621225299	-6.98450821087968	-12.3380621225299	-15.0148390783551	-13.5098700602731	-15.8534859357595	-12.6750526405737	-11.3347494438086	-16.1866470160983
-14.1800216586557	-19.2004144899672	-15.8534859357595	-17.8601112932021	-9.82978042572671	-17.3584549538415	-14.3485169176776	-14.0115263996338	-17.5269502128634	-19.7020708293278	-12.1733963012131	-6.98450821087968	-12.1733963012131	-15.0148390783551	-13.3452042389563	-15.6849906767376	-12.5065573815518	-11.1700836224918	-16.1866470160983
-14.3485169176776	-19.2004144899672	-16.0219811947814	-17.8601112932021	-9.99827568474861	-17.3584549538415	-14.3485169176776	-14.3485169176776	-17.6916160341802	-20.0352319096666	-12.3380621225299	-7.15300346990158	-12.3380621225299	-15.183334337377	-13.5098700602731	-15.6849906767376	-12.6750526405737	-11.3347494438086	-16.5236375341421
-14.0115263996338	-19.0319192309453	-15.8534859357595	-17.8601112932021	-9.82978042572671	-17.3584549538415	-14.1800216586557	-14.0115263996338	-17.5269502128634	-19.5335755703059	-12.1733963012131	-6.81984238956282	-12.1733963012131	-15.0148390783551	-13.3452042389563	-15.6849906767376	-12.5065573815518	-11.1700836224918	-16.1866470160983
-14.5131827389944	-19.365080311284	-16.0219811947814	-17.8601112932021	-9.99827568474861	-17.3584549538415	-14.5131827389944	-14.3485169176776	-17.8601112932021	-20.3683929900053	-12.5065573815518	-7.32149872892347	-12.5065573815518	-15.183334337377	-13.678365319295	-16.0219811947814	-12.8397184618906	-11.3347494438086	-16.5236375341421
-13.678365319295	-18.8634239719234	-15.6849906767376	-17.8601112932021	-9.66128516670481	-17.5269502128634	-14.0115263996338	-13.678365319295	-17.1899596948196	-19.2004144899672	-11.8364057831693	-6.65134713054093	-12.0049010421912	-14.8501732570382	-13.1767089799344	-15.5164954177157	-12.1733963012131	-10.833093104448	-15.8534859357595
-15.0148390783551	-19.5335755703059	-16.1866470160983	-17.8601112932021	-10.1629415060655	-17.3584549538415	-14.6816779980163	-14.8501732570382	-18.1971018112459	-21.2070398474098	-12.8397184618906	-7.48616455024033	-12.6750526405737	-15.5164954177157	-14.0115263996338	-16.1866470160983	-13.1767089799344	-11.6717399618524	-16.8567986144808
-12.8397184618906	-18.5302628915847	-15.183334337377	-17.8601112932021	-9.15962882734416	-17.3584549538415	-13.5098700602731	-12.8397184618906	-16.5236375341421	-17.5269502128634	-11.1700836224918	-5.9811955321584	-11.5032447028305	-14.3485169176776	-12.6750526405737	-14.8501732570382	-11.3347494438086	-10.1629415060655	-15.183334337377
-18.3617676325627	-22.0418572671092	-18.8634239719234	-18.028606552224	-12.8397184618906	-18.1971018112459	-17.6916160341802	-20.0352319096666	-21.8771914457923	-29.7390270542458	-16.5236375341421	-11.0015883634699	-15.0148390783551	-18.028606552224	-17.0252938735027	-19.365080311284	-17.3584549538415	-15.183334337377	-20.7053835080491
26.8026206607156	18.7722897932403	15.0922001586938	24.1258437048905	22.4523794277867	18.4391287129015	19.9440977309834	3.88343599603265	9.40165572899976	-26.3920985000381	17.0988255161364	21.950723088426	29.146236536202	20.614249329366	12.7485842832074	13.7518969619288	11.4121105241474	16.9303302571145	15.4253612390326
33.3279825101091	24.2943389639124	17.2673207751583	20.2772588113222	28.6445801968414	18.1021381948577	25.6308127229725	9.40165572899976	12.4154232028687	-17.6916160341802	23.6241873655299	26.6341254016937	18.9407850522621	26.4694595803769	15.4253612390326	18.6037945342184	17.6004818554971	22.7893699458305	21.950723088426
21.950723088426	17.6004818554971	5.72156609445334	4.71825341573206	20.2772588113222	16.0955128374151	18.9407850522621	3.54644547798885	4.2165970763714	-21.3755351064317	13.9203922209506	19.7756024719615	13.5872311406119	17.768977114519	8.89999938963912	10.9104541847868	13.0855748012512	15.9270175783932	13.5872311406119
20.4457540703441	13.2502406225681	5.38840501411458	12.2469279438468	16.9303302571145	16.0955128374151	15.2568659800107	1.20665904020753	0.869668522163735	-19.2004144899672	12.0784326848249	18.4391287129015	17.6004818554971	11.9137668635081	7.72819145189594	5.2199097550927	10.4049684077211	13.0855748012512	10.0718073273823
10.573463666743	8.39834305027848	3.88343599603265	16.264008096437	12.4154232028687	6.72487877317464	10.2403025864042	-3.30441857633326	-3.47291383535516	-21.0385445883879	7.22653511253527	12.7485842832074	13.9203922209506	8.39834305027848	4.38509233539331	-1.12929795986878	4.88674867475395	9.06849464866103	5.05141449607079
8.89999938963912	5.38840501411458	-1.29779321889067	9.23698990768291	4.04810181734952	3.88343599603265	6.72487877317464	-6.31818605020219	-5.81270027313649	-20.7053835080491	1.03816378118563	9.06849464866103	6.89337403219655	5.2199097550927	1.20665904020753	-4.47622651407644	1.53982012054627	4.38509233539331	0.0348511024643301
5.72156609445334	1.37132486152437	-6.81984238956282	0.199516923781189	-2.97125749599451	-3.637579656672	2.04147645990692	-8.99496300602732	-9.49661934538796	-20.3683929900053	-4.1430654337377	5.72156609445334	0.0348511024643301	-7.48616455024033	-3.13592331731137	-9.15962882734416	-1.79944955825131	0.0348511024643301	-5.14637811245899
1.87298120088502	-4.30773125505455	-17.0252938735027	-14.6816779980163	-3.97457017471579	-8.99496300602732	-3.13592331731137	-12.0049010421912	-14.1800216586557	-19.8667366506447	-4.30773125505455	2.71162805828946	-2.80276223697261	-9.82978042572671	-7.65465980926223	-13.1767089799344	-3.47291383535516	-3.13592331731137	-9.32812408636606
-3.47291383535516	-9.32812408636606	-21.7086961867704	-12.5065573815518	-12.0049010421912	-7.82315506828412	-8.32481140764477	-16.5236375341421	-18.5302628915847	-20.873878767071	-9.82978042572671	-2.63426697795072	-6.81984238956282	-13.1767089799344	-11.6717399618524	-18.1971018112459	-7.48616455024033	-8.82646774700542	-15.0148390783551
-9.49661934538796	-13.1767089799344	-19.2004144899672	-3.30441857633326	-9.49661934538796	-9.15962882734416	-12.6750526405737	-18.6987581506066	-21.3755351064317	-20.7053835080491	-12.8397184618906	-6.48285187151903	-11.8364057831693	-16.8567986144808	-13.678365319295	-21.5402009277485	-11.3347494438086	-12.3380621225299	-19.7020708293278
-15.6849906767376	-14.0115263996338	-24.2169778835737	-11.0015883634699	-17.1899596948196	-16.1866470160983	-15.6849906767376	-20.2037271686885	-24.5539684016175	-20.3683929900053	-16.1866470160983	-7.48616455024033	-13.0082137209125	-21.7086961867704	-15.0148390783551	-23.715321544213	-13.0082137209125	-13.5098700602731	-23.5506557228962
-20.5368882490272	-18.1971018112459	-24.0523120622568	-17.5269502128634	-23.5506557228962	-23.5506557228962	-18.8634239719234	-21.3755351064317	-26.7290890180819	-20.873878767071	-18.8634239719234	-9.99827568474861	-14.6816779980163	-20.7053835080491	-17.1899596948196	-23.8838168032349	-14.1800216586557	-16.0219811947814	-22.7120088654917
-12.3380621225299	-18.3617676325627	-33.756107206836	-28.4025532951858	-18.1971018112459	-23.0489993835355	-19.365080311284	-20.873878767071	-28.2340580361639	-19.7020708293278	-21.8771914457923	-11.0015883634699	-16.0219811947814	-22.5435136064698	-18.6987581506066	-24.3854731425956	-13.3452042389563	-17.1899596948196	-23.5506557228962
-13.1767089799344	-19.0319192309453	-30.5776739116503	-24.3854731425956	-20.2037271686885	-24.7186342229343	-21.3755351064317	-22.0418572671092	-30.2406833936065	-20.7053835080491	-25.220290562295	-12.8397184618906	-16.8567986144808	-16.3551422751202	-19.365080311284	-26.3920985000381	-13.5098700602731	-20.7053835080491	-24.2169778835737
-17.0252938735027	-21.8771914457923	-18.1971018112459	-14.5131827389944	-24.2169778835737	-25.7257763393606	-23.715321544213	-23.3821604638743	-32.5842992690929	-20.7053835080491	-25.220290562295	-15.6849906767376	-16.0219811947814	-23.2136652048524	-20.2037271686885	-29.7390270542458	-15.8534859357595	-22.7120088654917	-28.7357143755245
-19.8667366506447	-26.2274326787213	-25.5572810803388	-24.2169778835737	-26.8937548393988	-26.7290890180819	-25.8904421606775	-24.0523120622568	-35.261076224918	-19.8667366506447	-28.2340580361639	-18.028606552224	-22.0418572671092	-26.8937548393988	-21.3755351064317	-31.4124913313497	-17.0252938735027	-24.3854731425956	-31.5809865903716
-21.5402009277485	-29.0688754558633	-26.7290890180819	-27.5639064377813	-28.2340580361639	-30.4091786526284	-28.4025532951858	-26.7290890180819	-39.611317457847	-20.3683929900053	-31.7456524116884	-20.873878767071	-27.0622500984207	-26.3920985000381	-25.3887858213169	-33.5876119478141	-17.8601112932021	-27.2307453574426	-31.7456524116884
-22.7120088654917	-32.2473087510491	-32.5842992690929	-40.6146301365682	-30.0760175722896	-37.2677015823606	-30.5776739116503	-27.9008969558251	-44.2947197711147	-20.3683929900053	-34.5909246265354	-23.715321544213	-34.0892682871748	-32.2473087510491	-28.9042096345464	-38.2710142610819	-18.3617676325627	-30.4091786526284	-37.6046921004044
-26.3920985000381	-36.0958936446174	-32.9174603494316	-46.9714967269398	-29.5705317952239	-37.2677015823606	-33.4191166887922	-29.4058659739071	-48.3117999237049	-20.5368882490272	-37.2677015823606	-26.7290890180819	-32.0826429297322	-34.5909246265354	-30.910834991989	-42.6212554940108	-20.2037271686885	-34.4224293675135	-40.7831253955901
-28.4025532951858	-37.2677015823606	-28.2340580361639	-31.2439960723278	-33.5876119478141	-37.7693579217212	-35.0925809658961	-29.7390270542458	-49.1466173434043	-19.7020708293278	-38.2710142610819	-26.0589374196994	-29.5705317952239	-37.9378531807431	-30.7423397329671	-45.4665277088579	-22.378847785153	-34.4224293675135	-42.1195991546502
-32.2473087510491	-36.2643889036393	-27.3954111787594	-31.7456524116884	-33.756107206836	-38.9411658594644	-35.4295714839399	-29.7390270542458	-49.1466173434043	-20.0352319096666	-39.4428221988251	-28.4025532951858	-21.3755351064317	-39.9444785381857	-32.2473087510491	-46.8068309056229	-23.8838168032349	-37.0992063233387	-45.1333666285191
-31.5809865903716	-37.2677015823606	-30.7423397329671	-41.2847817349508	-29.4058659739071	-34.7594198855573	-36.4328841626612	-30.4091786526284	-49.9852642008087	-20.7053835080491	-37.6046921004044	-29.4058659739071	-42.2880944136721	-42.6212554940108	-34.0892682871748	-47.9748094056611	-25.5572810803388	-37.9378531807431	-46.9714967269398
-29.2373707148852	-38.106348439765	-33.5876119478141	-44.7963761104753	-33.2544508674754	-38.7726706004425	-37.2677015823606	-29.7390270542458	-51.6587284779126	-21.0385445883879	-38.7726706004425	-30.0760175722896	-38.4395095201038	-34.9279151445792	-35.261076224918	-45.9681840482185	-24.0523120622568	-37.9378531807431	-42.6212554940108
-31.0793302510109	-39.1096611184863	-34.2577635461967	-46.8068309056229	-32.0826429297322	-36.9345405020218	-36.7660452429999	-28.7357143755245	-51.3217379598688	-20.3683929900053	-37.6046921004044	-29.7390270542458	-31.0793302510109	-30.2406833936065	-33.756107206836	-44.4632150301366	-23.2136652048524	-36.7660452429999	-40.947791216907
-36.2643889036393	-34.7594198855573	-26.56059375906	-33.4191166887922	-31.2439960723278	-28.9042096345464	-36.2643889036393	-27.2307453574426	-49.6482736827649	-19.5335755703059	-37.0992063233387	-29.5705317952239	-35.7627325642786	-34.7594198855573	-31.2439960723278	-43.6245681727321	-23.0489993835355	-36.2643889036393	-40.947791216907
-29.7390270542458	-31.9141476707103	-27.7324016968032	-34.0892682871748	-31.7456524116884	-33.2544508674754	-37.2677015823606	-26.3920985000381	-50.1499300221256	-20.2037271686885	-41.1162864759289	-28.7357143755245	-31.9141476707103	-39.2743269398032	-31.0793302510109	-43.6245681727321	-23.715321544213	-36.7660452429999	-42.6212554940108
-24.8871294819562	-31.0793302510109	-27.7324016968032	-36.9345405020218	-29.2373707148852	-32.0826429297322	-36.4328841626612	-25.5572810803388	-49.3151126024262	-19.8667366506447	-34.5909246265354	-27.2307453574426	-29.9075223132677	-36.0958936446174	-30.7423397329671	-40.947791216907	-23.3821604638743	-34.4224293675135	-39.4428221988251
-25.0556247409781	-31.4124913313497	-30.5776739116503	-44.6317102891585	-27.5639064377813	-40.2814690562295	-35.4295714839399	-24.2169778835737	-50.1499300221256	-20.0352319096666	-34.5909246265354	-26.2274326787213	-26.3920985000381	-36.7660452429999	-31.7456524116884	-40.7831253955901	-22.5435136064698	-34.7594198855573	-39.1096611184863
-23.8838168032349	-30.5776739116503	-31.5809865903716	-47.6416483253224	-24.7186342229343	-36.597549983978	-35.5942373052567	-24.0523120622568	-51.1532427008469	-20.0352319096666	-34.2577635461967	-26.0589374196994	-29.0688754558633	-36.4328841626612	-32.0826429297322	-41.4494475562676	-22.0418572671092	-35.4295714839399	-40.2814690562295
-24.2169778835737	-31.0793302510109	-28.9042096345464	-34.2577635461967	-25.8904421606775	-32.2473087510491	-37.4361968413825	-23.5506557228962	-52.493545897612	-20.873878767071	-32.2473087510491	-27.0622500984207	-27.7324016968032	-33.5876119478141	-30.7423397329671	-43.6245681727321	-24.0523120622568	-36.4328841626612	-40.947791216907
-25.3887858213169	-32.7527945281147	-40.6146301365682	-34.2577635461967	-20.3683929900053	-31.2439960723278	-38.2710142610819	-23.2136652048524	-52.9952022369726	-20.3683929900053	-30.7423397329671	-28.5672191165026	-30.5776739116503	-37.7693579217212	-30.4091786526284	-43.9615586907759	-24.8871294819562	-37.0992063233387	-43.4599023514153
-27.7324016968032	-37.2677015823606	-19.365080311284	-40.4461348775463	-27.3954111787594	-33.5876119478141	-39.9444785381857	-23.2136652048524	-52.6620411566339	-20.0352319096666	-35.7627325642786	-28.2340580361639	-29.0688754558633	-37.9378531807431	-31.2439960723278	-43.1229118333715	-25.8904421606775	-37.2677015823606	-43.4599023514153
-31.7456524116884	-37.7693579217212	-30.7423397329671	-47.6416483253224	-33.0859556084535	-36.9345405020218	-41.2847817349508	-23.3821604638743	-51.1532427008469	-20.2037271686885	-36.597549983978	-27.2307453574426	-29.9075223132677	-37.9378531807431	-31.5809865903716	-42.7897507530327	-26.2274326787213	-35.7627325642786	-42.2880944136721
-34.2577635461967	-37.6046921004044	-35.0925809658961	-51.8233942992294	-30.5776739116503	-35.7627325642786	-41.9511038956283	-24.7186342229343	-50.1499300221256	-20.7053835080491	-36.4328841626612	-29.2373707148852	-30.5776739116503	-32.9174603494316	-33.756107206836	-44.4632150301366	-26.56059375906	-36.597549983978	-43.1229118333715
-29.2373707148852	-36.9345405020218	-30.7423397329671	-35.261076224918	-28.2340580361639	-30.4091786526284	-41.1162864759289	-25.0556247409781	-47.3084872449836	-20.2037271686885	-38.4395095201038	-32.5842992690929	-27.0622500984207	-29.7390270542458	-34.4224293675135	-44.6317102891585	-28.9042096345464	-40.1129737972076	-42.9582460120546
-30.2406833936065	-35.0925809658961	-27.3954111787594	-28.7357143755245	-28.7357143755245	-32.7527945281147	-40.947791216907	-25.220290562295	-44.7963761104753	-20.2037271686885	-38.2710142610819	-32.2473087510491	-31.9141476707103	-34.5909246265354	-33.0859556084535	-45.6350229678798	-29.7390270542458	-40.6146301365682	-46.638335646601
-32.5842992690929	-35.5942373052567	-30.7423397329671	-36.0958936446174	-27.0622500984207	-32.9174603494316	-41.2847817349508	-25.8904421606775	-42.2880944136721	-20.0352319096666	-36.4328841626612	-31.2439960723278	-30.7423397329671	-42.7897507530327	-33.2544508674754	-46.1366793072404	-30.5776739116503	-41.2847817349508	-49.4836078614481
-39.1096611184863	-36.9345405020218	-34.2577635461967	-46.3013451285573	-24.5539684016175	-39.611317457847	-42.2880944136721	-27.5639064377813	-40.6146301365682	-20.7053835080491	-36.7660452429999	-32.415804010071	-34.4224293675135	-42.456589672694	-36.597549983978	-46.1366793072404	-32.5842992690929	-44.4632150301366	-50.6515863614862
-36.0958936446174	-40.1129737972076	-39.4428221988251	-50.1499300221256	-26.3920985000381	-39.2743269398032	-42.1195991546502	-27.9008969558251	-38.106348439765	-20.3683929900053	-38.9411658594644	-33.9207730281529	-31.9141476707103	-43.6245681727321	-39.9444785381857	-47.9748094056611	-34.0892682871748	-47.3084872449836	-53.4968585763333
-29.0688754558633	-40.7831253955901	-35.261076224918	-37.7693579217212	-30.4091786526284	-43.1229118333715	-42.9582460120546	-28.9042096345464	-37.4361968413825	-21.2070398474098	-38.7726706004425	-35.0925809658961	-37.7693579217212	-48.6449610040436	-39.2743269398032	-52.3250506385901	-37.9378531807431	-49.3151126024262	-59.1874030060273
-28.4025532951858	-37.2677015823606	-32.415804010071	-29.7390270542458	-25.8904421606775	-39.9444785381857	-42.1195991546502	-28.2340580361639	-37.0992063233387	-20.3683929900053	-35.9312278233005	-33.5876119478141	-24.8871294819562	-42.1195991546502	-37.2677015823606	-50.3184252811475	-38.106348439765	-47.1399919859617	-57.0122823895628
-28.9042096345464	-33.4191166887922	-30.910834991989	-32.9174603494316	-23.8838168032349	-32.7527945281147	-40.4461348775463	-27.9008969558251	-36.597549983978	-20.3683929900053	-35.261076224918	-32.9174603494316	-26.8937548393988	-41.7864380743114	-36.9345405020218	-48.6449610040436	-37.6046921004044	-46.9714967269398	-54.8371617730983
-28.9042096345464	-32.7527945281147	-39.2743269398032	-40.1129737972076	-24.3854731425956	-34.4224293675135	-40.7831253955901	-28.9042096345464	-37.2677015823606	-20.5368882490272	-35.5942373052567	-33.2544508674754	-41.4494475562676	-41.9511038956283	-37.9378531807431	-48.8134562630655	-37.0992063233387	-46.638335646601	-52.9952022369726
-28.9042096345464	-36.0958936446174	-41.7864380743114	-50.8200816205081	-22.7120088654917	-40.7831253955901	-39.7798127168688	-29.4058659739071	-38.9411658594644	-20.3683929900053	-34.2577635461967	-32.2473087510491	-21.5402009277485	-45.1333666285191	-38.6080047791257	-51.1532427008469	-36.2643889036393	-46.3013451285573	-55.5034839337758
-34.5909246265354	-37.0992063233387	-29.7390270542458	-39.9444785381857	-24.0523120622568	-39.9444785381857	-40.1129737972076	-31.0793302510109	-40.947791216907	-20.3683929900053	-34.2577635461967	-32.7527945281147	-32.5842992690929	-45.7996887891966	-37.9378531807431	-53.830019656672	-36.597549983978	-46.3013451285573	-57.5139387289235
-32.0826429297322	-37.9378531807431	-31.9141476707103	-41.9511038956283	-27.9008969558251	-33.9207730281529	-40.4461348775463	-31.7456524116884	-41.7864380743114	-20.5368882490272	-38.4395095201038	-32.415804010071	-42.7897507530327	-48.9781220843824	-37.0992063233387	-56.675291871519	-37.4361968413825	-47.3084872449836	-60.1907156847486
-36.2643889036393	-36.0958936446174	-33.0859556084535	-44.6317102891585	-31.2439960723278	-34.5909246265354	-40.1129737972076	-32.9174603494316	-43.2914070923934	-20.7053835080491	-38.9411658594644	-34.2577635461967	-35.7627325642786	-49.1466173434043	-38.4395095201038	-57.1769482108797	-37.9378531807431	-48.6449610040436	-60.8570378454261
-33.2544508674754	-36.597549983978	-35.9312278233005	-38.9411658594644	-31.2439960723278	-41.2847817349508	-39.7798127168688	-33.2544508674754	-41.6179428152895	-20.2037271686885	-37.6046921004044	-35.5942373052567	-40.4461348775463	-45.298032449836	-40.7831253955901	-57.0122823895628	-37.6046921004044	-50.3184252811475	-60.6923720241092
-27.2307453574426	-38.4395095201038	-37.2677015823606	-41.2847817349508	-29.2373707148852	-46.9714967269398	-36.9345405020218	-32.9174603494316	-39.1096611184863	-19.365080311284	-37.4361968413825	-36.0958936446174	-37.9378531807431	-55.338818112459	-41.6179428152895	-57.8470998092622	-36.0958936446174	-50.3184252811475	-61.1940283634699
-35.4295714839399	-37.9378531807431	-36.9345405020218	-34.4224293675135	-32.5842992690929	-44.6317102891585	-38.106348439765	-34.9279151445792	-37.2677015823606	-20.7053835080491	-40.7831253955901	-36.2643889036393	-38.9411658594644	-55.338818112459	-42.2880944136721	-58.8504124879835	-38.2710142610819	-50.4869205401694	-62.3658363012131
-35.7627325642786	-33.756107206836	-31.4124913313497	-22.2103525261311	-33.9207730281529	-33.9207730281529	-37.7693579217212	-35.5942373052567	-35.9312278233005	-20.2037271686885	-40.6146301365682	-35.7627325642786	-37.6046921004044	-54.5001712550546	-40.4461348775463	-58.3487561486229	-38.9411658594644	-49.3151126024262	-64.2039663996338
-22.8805041245136	-31.9141476707103	-32.415804010071	-25.7257763393606	-28.065562777142	-34.5909246265354	-35.9312278233005	-34.9279151445792	-32.9174603494316	-20.2037271686885	-38.4395095201038	-34.4224293675135	-34.7594198855573	-47.4731530663005	-40.2814690562295	-52.8267069779507	-37.4361968413825	-46.4698403875792	-59.3520688273442
-21.5402009277485	-32.5842992690929	-33.5876119478141	-27.9008969558251	-27.3954111787594	-35.5942373052567	-34.4224293675135	-35.0925809658961	-31.0793302510109	-20.2037271686885	-38.7726706004425	-32.5842992690929	-32.2473087510491	-49.4836078614481	-40.1129737972076	-49.9852642008087	-36.2643889036393	-44.9648713694972	-56.0051402731365
-25.220290562295	-31.4124913313497	-35.7627325642786	-34.2577635461967	-28.065562777142	-38.2710142610819	-33.2544508674754	-34.7594198855573	-29.0688754558633	-19.5335755703059	-39.611317457847	-30.910834991989	-34.0892682871748	-47.1399919859617	-40.1129737972076	-46.8068309056229	-33.9207730281529	-41.9511038956283	-53.830019656672
-25.8904421606775	-31.7456524116884	-35.5942373052567	-28.4025532951858	-28.2340580361639	-35.9312278233005	-32.7527945281147	-35.4295714839399	-28.5672191165026	-20.873878767071	-38.106348439765	-30.4091786526284	-33.2544508674754	-46.3013451285573	-39.2743269398032	-46.1366793072404	-34.0892682871748	-41.1162864759289	-53.3283633173114
-25.8904421606775	-30.2406833936065	-29.7390270542458	-15.183334337377	-29.9075223132677	-30.7423397329671	-31.7456524116884	-35.4295714839399	-25.8904421606775	-20.873878767071	-38.106348439765	-29.5705317952239	-31.4124913313497	-39.4428221988251	-37.2677015823606	-42.9582460120546	-33.5876119478141	-39.4428221988251	-50.8200816205081
-23.0489993835355	-26.7290890180819	-29.7390270542458	-18.1971018112459	-29.4058659739071	-29.5705317952239	-30.910834991989	-34.0892682871748	-23.8838168032349	-20.2037271686885	-35.5942373052567	-24.8871294819562	-31.7456524116884	-36.9345405020218	-34.4224293675135	-38.4395095201038	-32.0826429297322	-35.0925809658961	-46.9714967269398
-22.378847785153	-23.715321544213	-30.910834991989	-21.3755351064317	-25.5572810803388	-33.9207730281529	-29.7390270542458	-33.4191166887922	-22.7120088654917	-20.2037271686885	-34.0892682871748	-24.2169778835737	-20.2037271686885	-36.0958936446174	-33.756107206836	-33.756107206836	-30.4091786526284	-32.415804010071	-41.7864380743114
-21.5402009277485	-23.8838168032349	-33.5876119478141	-27.2307453574426	-23.2136652048524	-34.4224293675135	-28.065562777142	-32.9174603494316	-21.2070398474098	-19.7020708293278	-34.2577635461967	-24.0523120622568	-21.5402009277485	-33.4191166887922	-33.9207730281529	-30.2406833936065	-29.4058659739071	-31.5809865903716	-40.4461348775463
-22.7120088654917	-24.2169778835737	-35.261076224918	-24.8871294819562	-27.2307453574426	-34.2577635461967	-27.9008969558251	-33.2544508674754	-20.7053835080491	-20.0352319096666	-33.9207730281529	-21.8771914457923	-18.3617676325627	-30.2406833936065	-32.9174603494316	-28.2340580361639	-28.2340580361639	-28.4025532951858	-38.2710142610819
-20.7053835080491	-24.2169778835737	-28.7357143755245	-8.99496300602732	-25.8904421606775	-27.9008969558251	-27.3954111787594	-32.415804010071	-18.6987581506066	-20.5368882490272	-33.4191166887922	-21.2070398474098	-21.8771914457923	-23.0489993835355	-30.2406833936065	-25.5572810803388	-28.4025532951858	-27.0622500984207	-36.2643889036393
-21.2070398474098	-20.3683929900053	-29.0688754558633	-9.66128516670481	-26.2274326787213	-20.7053835080491	-25.8904421606775	-31.4124913313497	-18.8634239719234	-20.2037271686885	-32.2473087510491	-19.365080311284	-18.3617676325627	-18.028606552224	-28.2340580361639	-22.5435136064698	-26.56059375906	-24.0523120622568	-32.2473087510491
-16.3551422751202	-17.5269502128634	-30.7423397329671	-14.3485169176776	-26.3920985000381	-21.0385445883879	-25.220290562295	-29.9075223132677	-18.5302628915847	-20.3683929900053	-29.5705317952239	-16.6883033554589	-11.6717399618524	-19.2004144899672	-26.2274326787213	-19.7020708293278	-24.7186342229343	-20.3683929900053	-28.065562777142
-19.0319192309453	-18.3617676325627	-32.5842992690929	-20.0352319096666	-23.5506557228962	-21.2070398474098	-23.3821604638743	-28.9042096345464	-17.8601112932021	-20.2037271686885	-22.378847785153	-15.0148390783551	-22.7120088654917	-21.7086961867704	-25.7257763393606	-18.5302628915847	-21.7086961867704	-19.365080311284	-27.5639064377813
-13.5098700602731	-14.8501732570382	-31.9141476707103	-17.6916160341802	-24.3854731425956	-19.2004144899672	-21.5402009277485	-26.8937548393988	-16.6883033554589	-20.2037271686885	-23.715321544213	-12.1733963012131	-11.0015883634699	-17.6916160341802	-23.715321544213	-15.8534859357595	-18.3617676325627	-17.0252938735027	-24.0523120622568
-10.6645978454261	-12.8397184618906	-26.2274326787213	-4.64472177309834	-24.2169778835737	-15.5164954177157	-20.7053835080491	-25.5572810803388	-14.8501732570382	-20.873878767071	-25.220290562295	-9.49661934538796	-10.1629415060655	-15.6849906767376	-19.8667366506447	-13.8468605783169	-16.6883033554589	-12.8397184618906	-22.2103525261311
-10.4999320241093	-14.8501732570382	-21.8771914457923	-2.63426697795072	-18.5302628915847	-13.678365319295	-18.1971018112459	-21.8771914457923	-13.1767089799344	-20.5368882490272	-15.183334337377	-4.97788285343709	-9.15962882734416	-11.3347494438086	-15.0148390783551	-11.0015883634699	-13.8468605783169	-8.65797248798351	-17.0252938735027
-5.81270027313649	-12.3380621225299	-20.7053835080491	-3.97457017471579	-17.3584549538415	-11.0015883634699	-16.0219811947814	-18.8634239719234	-12.5065573815518	-20.5368882490272	-10.6645978454261	-1.79944955825131	-6.98450821087968	-7.48616455024033	-13.5098700602731	-8.48947722896162	-11.6717399618524	-4.8093875944152	-12.0049010421912
-1.63095429922942	-11.0015883634699	-17.8601112932021	-8.15631614862288	-12.5065573815518	-9.99827568474861	-12.3380621225299	-16.3551422751202	-10.4999320241093	-20.7053835080491	-5.31104393377585	0.199516923781189	-4.64472177309834	-9.49661934538796	-11.8364057831693	-6.48285187151903	-10.1629415060655	-2.97125749599451	-10.833093104448
-0.294480540169374	-6.98450821087968	-15.0148390783551	-10.1629415060655	-9.99827568474861	-17.1899596948196	-9.15962882734416	-13.3452042389563	-9.66128516670481	-20.5368882490272	1.20665904020753	2.37463754024567	4.38509233539331	-8.99496300602732	-10.4999320241093	-6.14969079118029	-8.32481140764477	-0.796136879530025	-11.0015883634699
1.53982012054627	-0.796136879530025	-5.64803445181964	7.06186929121843	-0.459146361486233	-6.98450821087968	-7.15300346990158	-11.1700836224918	-7.82315506828412	-20.5368882490272	2.04147645990692	5.72156609445334	-3.637579656672	-2.80276223697261	-6.31818605020219	-5.81270027313649	-8.48947722896162	1.87298120088502	-7.15300346990158
0.0348511024643301	1.37132486152437	-4.1430654337377	8.23367722896161	9.57015098802167	-0.294480540169374	-6.48285187151903	-11.0015883634699	-8.99496300602732	-20.7053835080491	2.37463754024567	7.06186929121843	-3.47291383535516	-5.47953919279774	-6.14969079118029	-9.32812408636606	-9.99827568474861	2.20997171892881	-10.4999320241093
2.54313279926755	-1.29779321889067	-10.3314367650874	0.53650744182498	4.04810181734952	-4.8093875944152	-7.98782088960098	-12.5065573815518	-11.8364057831693	-20.873878767071	2.71162805828946	4.38509233539331	-2.13261063859007	-7.48616455024033	-9.32812408636606	-13.0082137209125	-12.6750526405737	-0.125985281147479	-12.3380621225299
0.701173263141825	-3.8060749156939	-22.2103525261311	-8.82646774700542	7.72819145189594	-8.32481140764477	-8.65797248798351	-12.1733963012131	-12.8397184618906	-19.8667366506447	3.37795021896697	3.04478913862822	-4.64472177309834	-10.6645978454261	-11.6717399618524	-14.5131827389944	-13.0082137209125	-0.627641620508129	-12.1733963012131
-1.29779321889067	-5.64803445181964	-12.0049010421912	-11.0015883634699	9.57015098802167	-16.6883033554589	-9.82978042572671	-14.1800216586557	-15.183334337377	-20.3683929900053	1.03816378118563	-0.459146361486233	-12.8397184618906	-13.0082137209125	-15.0148390783551	-17.8601112932021	-14.8501732570382	-2.97125749599451	-15.8534859357595
-0.96080270084687	-6.14969079118029	1.20665904020753	-1.29779321889067	5.2199097550927	-13.8468605783169	-11.1700836224918	-16.5236375341421	-17.6916160341802	-21.2070398474098	-1.79944955825131	-4.1430654337377	-9.15962882734416	-11.8364057831693	-15.8534859357595	-21.3755351064317	-18.6987581506066	-4.97788285343709	-20.0352319096666
-2.13261063859007	-4.8093875944152	-2.97125749599451	7.72819145189594	8.23367722896161	-11.5032447028305	-10.6645978454261	-16.0219811947814	-17.5269502128634	-20.2037271686885	-1.29779321889067	-3.47291383535516	-8.82646774700542	-19.0319192309453	-14.8501732570382	-21.3755351064317	-19.365080311284	-4.47622651407644	-21.3755351064317
-15.183334337377	-7.82315506828412	-10.1629415060655	3.37795021896697	8.06518196993973	-12.1733963012131	-14.8501732570382	-19.2004144899672	-18.8634239719234	-20.873878767071	-4.47622651407644	-5.14637811245899	-13.1767089799344	-22.378847785153	-19.0319192309453	-21.7086961867704	-21.2070398474098	-6.48285187151903	-20.873878767071
-11.8364057831693	-11.6717399618524	-17.1899596948196	-7.32149872892347	3.2132843976501	-18.1971018112459	-18.1971018112459	-22.0418572671092	-20.3683929900053	-20.5368882490272	-6.65134713054093	-7.48616455024033	-13.1767089799344	-21.7086961867704	-22.7120088654917	-21.8771914457923	-23.3821604638743	-9.66128516670481	-22.2103525261311
-11.5032447028305	-16.0219811947814	-24.0523120622568	-21.0385445883879	-1.29779321889067	-30.5776739116503	-21.0385445883879	-25.0556247409781	-22.378847785153	-21.3755351064317	-8.48947722896162	-12.0049010421912	-17.0252938735027	-25.7257763393606	-26.7290890180819	-25.0556247409781	-26.2274326787213	-11.8364057831693	-24.0523120622568
-15.183334337377	-18.6987581506066	-23.0489993835355	-8.32481140764477	-0.627641620508129	-21.3755351064317	-23.715321544213	-26.56059375906	-23.8838168032349	-21.0385445883879	-6.98450821087968	-14.5131827389944	-18.1971018112459	-23.715321544213	-26.8937548393988	-26.2274326787213	-27.2307453574426	-13.3452042389563	-23.2136652048524
-12.8397184618906	-20.3683929900053	-20.7053835080491	-4.8093875944152	-1.46628847791257	-21.8771914457923	-24.3854731425956	-26.3920985000381	-24.2169778835737	-20.3683929900053	-7.48616455024033	-14.5131827389944	-16.6883033554589	-22.8805041245136	-25.3887858213169	-27.0622500984207	-27.9008969558251	-14.3485169176776	-25.5572810803388
-16.6883033554589	-25.220290562295	-25.7257763393606	-13.0082137209125	-3.13592331731137	-22.5435136064698	-26.2274326787213	-28.2340580361639	-24.8871294819562	-20.2037271686885	-15.5164954177157	-16.3551422751202	-19.7020708293278	-23.2136652048524	-27.9008969558251	-26.7290890180819	-28.7357143755245	-15.3518295963989	-27.0622500984207
-25.7257763393606	-25.5572810803388	-33.9207730281529	-19.5335755703059	-8.99496300602732	-28.4025532951858	-28.5672191165026	-30.910834991989	-27.3954111787594	-21.5402009277485	-15.0148390783551	-18.6987581506066	-38.7726706004425	-27.5639064377813	-30.5776739116503	-28.4025532951858	-29.2373707148852	-17.8601112932021	-29.4058659739071
-22.378847785153	-28.4025532951858	-42.2880944136721	-32.0826429297322	-14.6816779980163	-37.6046921004044	-31.0793302510109	-32.9174603494316	-30.0760175722896	-20.7053835080491	-9.66128516670481	-20.0352319096666	-27.9008969558251	-31.4124913313497	-32.9174603494316	-29.9075223132677	-28.7357143755245	-18.6987581506066	-30.5776739116503
-23.8838168032349	-28.4025532951858	-41.9511038956283	-27.0622500984207	-14.0115263996338	-33.4191166887922	-33.9207730281529	-33.5876119478141	-30.5776739116503	-21.2070398474098	-12.1733963012131	-21.0385445883879	-28.5672191165026	-34.4224293675135	-33.5876119478141	-32.5842992690929	-29.5705317952239	-19.0319192309453	-33.4191166887922
-27.3954111787594	-31.2439960723278	-37.7693579217212	-15.0148390783551	-16.3551422751202	-33.2544508674754	-33.9207730281529	-34.2577635461967	-30.7423397329671	-20.873878767071	-13.678365319295	-20.5368882490272	-30.910834991989	-36.2643889036393	-31.2439960723278	-33.2544508674754	-29.0688754558633	-18.8634239719234	-35.5942373052567
-29.0688754558633	-32.2473087510491	-39.611317457847	-20.2037271686885	-18.1971018112459	-31.9141476707103	-33.5876119478141	-34.4224293675135	-30.5776739116503	-21.7086961867704	-14.8501732570382	-19.8667366506447	-30.7423397329671	-35.261076224918	-31.5809865903716	-31.9141476707103	-28.065562777142	-17.5269502128634	-34.7594198855573
-30.4091786526284	-28.7357143755245	-40.6146301365682	-25.0556247409781	-14.5131827389944	-30.7423397329671	-31.7456524116884	-32.2473087510491	-28.4025532951858	-21.0385445883879	-11.5032447028305	-18.028606552224	-29.2373707148852	-32.7527945281147	-30.4091786526284	-28.4025532951858	-25.7257763393606	-15.6849906767376	-30.2406833936065
-30.4091786526284	-30.910834991989	-42.456589672694	-34.0892682871748	-14.8501732570382	-36.9345405020218	-31.0793302510109	-30.7423397329671	-28.2340580361639	-20.5368882490272	-6.48285187151903	-16.8567986144808	-35.4295714839399	-35.4295714839399	-29.7390270542458	-28.5672191165026	-23.3821604638743	-14.6816779980163	-30.5776739116503
-25.7257763393606	-31.0793302510109	-40.947791216907	-29.2373707148852	-14.0115263996338	-38.106348439765	-31.4124913313497	-30.0760175722896	-27.2307453574426	-20.7053835080491	-11.6717399618524	-16.1866470160983	-33.756107206836	-36.4328841626612	-28.5672191165026	-29.9075223132677	-22.5435136064698	-13.0082137209125	-32.0826429297322
-28.065562777142	-31.5809865903716	-36.9345405020218	-20.2037271686885	-14.5131827389944	-32.415804010071	-33.0859556084535	-30.0760175722896	-28.7357143755245	-21.3755351064317	-12.6750526405737	-16.6883033554589	-31.2439960723278	-28.2340580361639	-27.0622500984207	-29.7390270542458	-24.2169778835737	-13.8468605783169	-31.0793302510109
-27.0622500984207	-32.415804010071	-39.2743269398032	-25.7257763393606	-18.3617676325627	-29.0688754558633	-33.9207730281529	-28.7357143755245	-29.7390270542458	-21.5402009277485	-11.6717399618524	-16.8567986144808	-21.2070398474098	-30.5776739116503	-28.4025532951858	-30.7423397329671	-24.7186342229343	-13.1767089799344	-32.0826429297322
-30.910834991989	-31.0793302510109	-42.7897507530327	-30.4091786526284	-18.028606552224	-32.415804010071	-33.0859556084535	-27.5639064377813	-28.7357143755245	-20.873878767071	-13.3452042389563	-15.8534859357595	-28.2340580361639	-33.2544508674754	-28.4025532951858	-29.2373707148852	-24.7186342229343	-11.5032447028305	-29.9075223132677
-30.910834991989	-31.4124913313497	-48.3117999237049	-44.7963761104753	-20.2037271686885	-34.9279151445792	-33.0859556084535	-26.56059375906	-29.0688754558633	-19.5335755703059	-15.3518295963989	-15.183334337377	-35.9312278233005	-30.4091786526284	-29.7390270542458	-28.9042096345464	-23.5506557228962	-12.1733963012131	-30.7423397329671
-24.8871294819562	-33.4191166887922	-45.6350229678798	-38.4395095201038	-23.0489993835355	-35.5942373052567	-34.9279151445792	-27.5639064377813	-30.5776739116503	-20.5368882490272	-18.6987581506066	-15.3518295963989	-31.4124913313497	-37.0992063233387	-29.5705317952239	-33.0859556084535	-24.5539684016175	-13.3452042389563	-33.756107206836
-30.7423397329671	-35.261076224918	-38.106348439765	-18.5302628915847	-21.2070398474098	-26.56059375906	-35.5942373052567	-27.5639064377813	-30.2406833936065	-21.7086961867704	-18.6987581506066	-17.0252938735027	-31.2439960723278	-32.0826429297322	-28.065562777142	-32.2473087510491	-26.3920985000381	-12.8397184618906	-31.9141476707103
-29.9075223132677	-33.756107206836	-39.4428221988251	-21.2070398474098	-17.8601112932021	-30.7423397329671	-34.0892682871748	-26.56059375906	-28.2340580361639	-20.873878767071	-16.5236375341421	-17.0252938735027	-27.3954111787594	-27.3954111787594	-27.0622500984207	-28.7357143755245	-25.3887858213169	-11.6717399618524	-28.9042096345464
-24.0523120622568	-28.9042096345464	-40.2814690562295	-25.8904421606775	-19.7020708293278	-28.4025532951858	-31.9141476707103	-24.5539684016175	-25.0556247409781	-20.7053835080491	-16.5236375341421	-13.8468605783169	-23.3821604638743	-17.6916160341802	-25.3887858213169	-24.0523120622568	-21.3755351064317	-7.82315506828412	-23.0489993835355
-19.8667366506447	-26.3920985000381	-39.1096611184863	-32.7527945281147	-14.8501732570382	-34.2577635461967	-29.7390270542458	-22.8805041245136	-23.0489993835355	-20.873878767071	-15.8534859357595	-10.3314367650874	-19.0319192309453	-25.0556247409781	-23.5506557228962	-21.0385445883879	-18.3617676325627	-4.97788285343709	-22.8805041245136
-21.7086961867704	-23.715321544213	-45.7996887891966	-27.9008969558251	-11.5032447028305	-31.2439960723278	-27.2307453574426	-22.0418572671092	-22.2103525261311	-21.5402009277485	-16.8567986144808	-8.32481140764477	-18.028606552224	-23.8838168032349	-22.0418572671092	-19.2004144899672	-16.6883033554589	-2.30110589761196	-20.3683929900053
-20.7053835080491	-17.5269502128634	-23.5506557228962	-9.32812408636606	-11.1700836224918	-14.5131827389944	-22.5435136064698	-21.0385445883879	-18.6987581506066	-20.7053835080491	-13.678365319295	-8.48947722896162	-22.378847785153	-14.0115263996338	-18.6987581506066	-16.8567986144808	-16.6883033554589	-0.294480540169374	-16.6883033554589
-10.4999320241093	-14.8501732570382	-21.3755351064317	-8.32481140764477	-4.47622651407644	-13.3452042389563	-18.1971018112459	-19.365080311284	-18.028606552224	-20.7053835080491	-11.1700836224918	-6.31818605020219	-13.678365319295	-16.3551422751202	-17.6916160341802	-16.3551422751202	-17.0252938735027	0.869668522163735	-16.3551422751202
-2.97125749599451	-8.48947722896162	-21.3755351064317	-5.9811955321584	-1.79944955825131	-7.98782088960098	-11.8364057831693	-15.8534859357595	-13.3452042389563	-20.5368882490272	-6.48285187151903	-1.79944955825131	1.87298120088502	-12.3380621225299	-14.6816779980163	-10.1629415060655	-12.6750526405737	6.223222433814	-9.66128516670481
0.0348511024643301	-1.96794481727321	-16.1866470160983	-7.15300346990158	-0.459146361486233	-5.64803445181964	-5.14637811245899	-13.1767089799344	-7.32149872892347	-21.2070398474098	-3.637579656672	2.04147645990692	5.72156609445334	-4.8093875944152	-11.5032447028305	-4.47622651407644	-7.32149872892347	11.5767763454643	-3.13592331731137
9.40165572899976	2.37463754024567	-14.6816779980163	-1.79944955825131	9.57015098802167	0.869668522163735	2.04147645990692	-8.15631614862288	-1.46628847791257	-20.3683929900053	1.37132486152437	7.89668671091782	0.199516923781189	2.20997171892881	-5.9811955321584	0.53650744182498	1.37132486152437	17.768977114519	2.71162805828946
13.9203922209506	10.7419589257648	4.2165970763714	24.2943389639124	18.2706334538796	12.7485842832074	7.39503037155718	-2.97125749599451	6.56021295185779	-20.5368882490272	7.56352563057909	15.9270175783932	12.9170795422293	12.4154232028687	3.04478913862822	8.39834305027848	8.06518196993973	25.1291563836118	11.9137668635081
20.4457540703441	20.2772588113222	-5.47953919279774	33.9981341084916	21.2805714900435	25.9678032410163	12.9170795422293	1.03816378118563	12.0784326848249	-21.2070398474098	10.2403025864042	21.1159056687266	22.2838841687648	22.2838841687648	9.73864624704358	15.7623517570764	13.7518969619288	30.1495492149233	19.4424413916228
21.7822278294041	21.4490667490654	3.71494073701076	29.146236536202	26.300964321355	22.2838841687648	14.2535533012894	3.04478913862822	14.75520964065	-21.3755351064317	15.9270175783932	24.4590047852293	19.9440977309834	23.455692106508	12.0784326848249	18.7722897932403	16.4286739177539	33.9981341084916	22.1192183474479
19.9440977309834	21.950723088426	13.5872311406119	21.4490667490654	26.1324690623331	21.7822278294041	15.7623517570764	3.88343599603265	16.4286739177539	-20.3683929900053	16.7656644357977	25.6308127229725	24.2943389639124	30.4827102952621	12.2469279438468	21.4490667490654	19.2739461326009	36.0047594659342	28.4760849378195
24.964490562295	23.1225310261692	3.88343599603265	21.2805714900435	29.146236536202	20.4457540703441	17.4319865964752	4.54975815671015	17.4319865964752	-21.3755351064317	17.768977114519	26.6341254016937	29.3109023575189	31.8230134920272	12.5800890241855	20.4457540703441	20.2772588113222	36.0047594659342	27.9744285984588
28.6445801968414	27.9744285984588	14.5905438193332	35.8362642069123	33.6611435904478	29.4793976165408	18.2706334538796	6.223222433814	20.9474104097047	-20.2037271686885	19.9440977309834	29.146236536202	32.3246698313878	28.1429238574807	16.4286739177539	21.950723088426	22.4523794277867	39.3516880201419	27.4727722590982
32.3246698313878	30.1495492149233	12.7485842832074	38.6815364217594	32.6578309117265	30.1495492149233	17.4319865964752	6.39171769283588	18.2706334538796	-21.8771914457923	19.6071072129397	29.6478928755627	30.8197008133059	27.8059333394369	17.4319865964752	19.4424413916228	21.6175620080873	39.8533443595025	26.9711159197376
24.795995303273	30.3180444739452	13.2502406225681	35.5031031265736	24.6275000442512	31.6545182330053	18.1021381948577	7.89668671091782	19.105450873579	-21.7086961867704	19.9440977309834	30.8197008133059	30.3180444739452	27.6412675181201	18.6037945342184	21.4490667490654	23.9573484458686	41.6953038956283	28.8092460181582
29.3109023575189	27.8059333394369	9.73864624704358	29.146236536202	31.4860229739834	33.1594872510872	19.2739461326009	10.9104541847868	20.614249329366	-21.3755351064317	24.1258437048905	34.832951528191	28.6445801968414	26.1324690623331	20.9474104097047	23.455692106508	27.9744285984588	44.8737371908141	33.1594872510872
40.0218396185245	27.8059333394369	10.573463666743	25.6308127229725	36.0047594659342	27.6412675181201	20.614249329366	13.9203922209506	20.7789151506828	-21.2070398474098	29.146236536202	36.1732547249561	41.1898181185626	27.8059333394369	22.1192183474479	24.1258437048905	30.1495492149233	46.8803625482567	33.8296388494698
35.6715983855955	32.8263261707485	18.2706334538796	44.2035855924315	38.0113848233768	34.832951528191	22.7893699458305	16.264008096437	22.2838841687648	-21.7086961867704	26.300964321355	37.3450626626993	36.1732547249561	30.4827102952621	24.964490562295	24.795995303273	30.1495492149233	48.8869879056992	35.3346078675517
39.6848491004807	35.1699420462348	24.1258437048905	50.2272911024643	41.3583133775845	38.5130411627375	24.4590047852293	18.2706334538796	23.455692106508	-20.7053835080491	29.146236536202	38.5130411627375	32.3246698313878	34.6682857068742	28.1429238574807	25.1291563836118	30.651205554284	50.3919569237812	37.0080721446555
38.5130411627375	33.1594872510872	22.9540357671473	42.8632823956664	41.8599697169451	38.3483753414206	24.795995303273	18.9407850522621	22.7893699458305	-21.8771914457923	27.4727722590982	40.3550006988632	37.0080721446555	34.4997904478523	27.4727722590982	25.7993079819943	29.9810539559014	51.3990990402075	40.1865054398413
37.5097284840162	34.6682857068742	22.6208746868086	35.1699420462348	44.0350903334096	30.8197008133059	24.1258437048905	20.9474104097047	21.950723088426	-20.873878767071	31.6545182330053	39.18319276112	36.0047594659342	36.337920546273	26.9711159197376	25.9678032410163	29.4793976165408	50.5604521828031	40.1865054398413
32.8263261707485	32.4931650904097	17.6004818554971	23.7926826245518	38.1798800823987	25.7993079819943	22.7893699458305	19.9440977309834	17.6004818554971	-21.3755351064317	30.8197008133059	35.8362642069123	32.3246698313878	31.987679313344	22.2838841687648	21.950723088426	27.3042770000763	46.8803625482567	36.0047594659342
28.1429238574807	28.6445801968414	18.4391287129015	31.1528618936446	37.1765674036774	26.6341254016937	19.7756024719615	16.9303302571145	14.5905438193332	-20.873878767071	25.4661469016556	32.9948214297703	30.651205554284	28.6445801968414	20.9474104097047	18.7722897932403	23.9573484458686	43.2002729137102	31.8230134920272
26.6341254016937	27.6412675181201	17.2673207751583	34.1627999298085	30.3180444739452	30.1495492149233	15.9270175783932	15.0922001586938	10.4049684077211	-21.3755351064317	21.4490667490654	29.4793976165408	21.1159056687266	27.8059333394369	18.1021381948577	14.5905438193332	20.4457540703441	39.8533443595025	29.3109023575189
22.7893699458305	21.7822278294041	15.9270175783932	32.3246698313878	26.4694595803769	29.4793976165408	13.41873588159	13.2502406225681	6.05855661249713	-21.0385445883879	18.1021381948577	26.4694595803769	17.768977114519	20.1087635523003	16.264008096437	9.90331206836042	17.2673207751583	36.0047594659342	24.4590047852293
18.1021381948577	15.0922001586938	9.73864624704358	20.9474104097047	24.4590047852293	21.2805714900435	9.06849464866103	10.573463666743	1.03816378118563	-21.0385445883879	14.5905438193332	23.1225310261692	26.1324690623331	14.4220485603113	12.7485842832074	6.89337403219655	14.0888874799725	32.6578309117265	20.9474104097047
19.7756024719615	13.7518969619288	2.37463754024567	5.55307083543146	18.7722897932403	14.2535533012894	5.38840501411458	7.06186929121843	-3.13592331731137	-21.0385445883879	8.56683830930037	19.4424413916228	14.9237048996719	11.9137668635081	7.39503037155718	2.37463754024567	10.9104541847868	28.3075896787976	17.4319865964752
8.23367722896161	9.73864624704358	-1.46628847791257	11.2436152651255	13.9203922209506	7.56352563057909	0.869668522163735	2.54313279926755	-6.81984238956282	-21.0385445883879	5.72156609445334	14.4220485603113	0.701173263141825	6.72487877317464	3.88343599603265	-3.13592331731137	5.89006135347525	23.455692106508	11.5767763454643
3.88343599603265	7.06186929121843	0.53650744182498	18.7722897932403	9.06849464866103	10.0718073273823	-1.12929795986878	0.701173263141825	-9.66128516670481	-21.7086961867704	0.869668522163735	12.2469279438468	4.54975815671015	5.05141449607079	2.87629387960631	-6.31818605020219	1.87298120088502	19.9440977309834	6.56021295185779
9.73864624704358	8.56683830930037	-4.1430654337377	13.0855748012512	8.23367722896161	11.7452716044861	-0.627641620508129	0.701173263141825	-9.82978042572671	-21.0385445883879	1.87298120088502	10.9104541847868	7.72819145189594	12.0784326848249	2.04147645990692	-3.637579656672	1.87298120088502	18.2706334538796	9.57015098802167
10.0718073273823	6.89337403219655	-13.5098700602731	5.55307083543146	7.22653511253527	3.2132843976501	-2.13261063859007	0.53650744182498	-9.15962882734416	-21.7086961867704	3.71494073701076	10.2403025864042	8.39834305027848	1.87298120088502	0.701173263141825	-3.47291383535516	2.04147645990692	17.0988255161364	7.06186929121843
9.90331206836042	3.88343599603265	-4.1430654337377	-3.97457017471579	11.9137668635081	4.88674867475395	-3.637579656672	-0.96080270084687	-9.32812408636606	-21.8771914457923	2.87629387960631	9.73864624704358	2.71162805828946	-0.796136879530025	-0.627641620508129	-4.1430654337377	2.71162805828946	16.0955128374151	5.05141449607079
4.38509233539331	0.869668522163735	-6.65134713054093	3.04478913862822	9.90331206836042	7.22653511253527	-4.97788285343709	-2.30110589761196	-9.32812408636606	-21.5402009277485	1.53982012054627	10.573463666743	3.71494073701076	3.37795021896697	1.20665904020753	-3.13592331731137	3.54644547798885	18.2706334538796	7.72819145189594
2.87629387960631	-1.63095429922942	-2.30110589761196	11.4121105241474	3.2132843976501	3.37795021896697	-6.98450821087968	-2.63426697795072	-8.99496300602732	-20.7053835080491	0.53650744182498	10.573463666743	5.72156609445334	6.39171769283588	2.54313279926755	-2.80276223697261	4.38509233539331	19.9440977309834	7.22653511253527
3.88343599603265	0.368012182803085	-6.98450821087968	5.72156609445334	0.701173263141825	4.38509233539331	-7.32149872892347	-3.97457017471579	-8.65797248798351	-19.8667366506447	-2.30110589761196	10.0718073273823	8.73533356832228	5.89006135347525	1.70831537956816	-1.46628847791257	4.71825341573206	19.4424413916228	7.22653511253527
-0.459146361486233	0.53650744182498	-10.3314367650874	-0.459146361486233	-0.96080270084687	2.04147645990692	-8.82646774700542	-6.14969079118029	-7.98782088960098	-21.3755351064317	-7.48616455024033	7.72819145189594	6.223222433814	11.5767763454643	-0.627641620508129	-0.459146361486233	3.88343599603265	18.6037945342184	9.57015098802167
0.701173263141825	-2.63426697795072	-13.8468605783169	-10.4999320241093	-0.459146361486233	-1.29779321889067	-10.6645978454261	-7.48616455024033	-9.32812408636606	-21.3755351064317	-6.98450821087968	8.39834305027848	1.70831537956816	8.39834305027848	-1.96794481727321	-2.13261063859007	4.38509233539331	18.6037945342184	7.72819145189594
-0.796136879530025	-5.9811955321584	-14.5131827389944	-11.5032447028305	-0.459146361486233	-7.48616455024033	-12.3380621225299	-7.65465980926223	-12.3380621225299	-21.3755351064317	-9.66128516670481	7.56352563057909	0.199516923781189	0.701173263141825	-2.46960115663386	-5.64803445181964	3.71494073701076	18.6037945342184	5.55307083543146
0.869668522163735	-6.98450821087968	-10.3314367650874	0.0348511024643301	1.20665904020753	1.20665904020753	-14.6816779980163	-9.82978042572671	-13.0082137209125	-21.0385445883879	-11.3347494438086	5.89006135347525	-1.46628847791257	-3.47291383535516	-3.30441857633326	-8.82646774700542	0.199516923781189	16.9303302571145	1.20665904020753
-3.8060749156939	-7.15300346990158	-12.8397184618906	-2.30110589761196	0.53650744182498	-1.12929795986878	-16.5236375341421	-11.8364057831693	-15.183334337377	-21.5402009277485	-10.833093104448	4.38509233539331	-4.30773125505455	-4.30773125505455	-6.31818605020219	-10.3314367650874	-2.30110589761196	13.7518969619288	0.199516923781189
-13.3452042389563	-7.98782088960098	-16.1866470160983	-7.48616455024033	1.20665904020753	-12.1733963012131	-18.028606552224	-14.0115263996338	-15.3518295963989	-20.873878767071	-10.6645978454261	4.04810181734952	-9.32812408636606	-2.97125749599451	-8.82646774700542	-10.6645978454261	-3.47291383535516	11.9137668635081	0.53650744182498
-3.30441857633326	-7.15300346990158	-21.0385445883879	-18.1971018112459	-0.96080270084687	-13.0082137209125	-18.3617676325627	-15.8534859357595	-16.0219811947814	-20.7053835080491	-12.0049010421912	1.37132486152437	-4.47622651407644	-0.125985281147479	-12.1733963012131	-11.5032447028305	-4.64472177309834	9.06849464866103	0.368012182803085
-5.14637811245899	-11.1700836224918	-25.3887858213169	-20.7053835080491	-7.15300346990158	-11.5032447028305	-19.7020708293278	-20.2037271686885	-18.028606552224	-21.8771914457923	-14.6816779980163	-3.637579656672	-9.82978042572671	-9.99827568474861	-16.3551422751202	-16.3551422751202	-8.65797248798351	4.88674867475395	-4.64472177309834
-6.81984238956282	-12.5065573815518	-21.7086961867704	-6.14969079118029	-9.82978042572671	-4.8093875944152	-20.7053835080491	-21.8771914457923	-18.028606552224	-20.7053835080491	-17.5269502128634	-4.64472177309834	-8.32481140764477	-9.82978042572671	-16.8567986144808	-18.3617676325627	-11.3347494438086	3.2132843976501	-5.9811955321584
-6.48285187151903	-13.678365319295	-19.7020708293278	-6.81984238956282	-8.82646774700542	-9.49661934538796	-22.2103525261311	-23.715321544213	-19.2004144899672	-22.5435136064698	-18.8634239719234	-7.65465980926223	-8.65797248798351	-10.3314367650874	-19.7020708293278	-18.6987581506066	-14.8501732570382	-0.796136879530025	-8.65797248798351
-6.14969079118029	-8.99496300602732	-21.8771914457923	-8.82646774700542	-3.8060749156939	-4.30773125505455	-20.5368882490272	-23.8838168032349	-16.5236375341421	-20.7053835080491	-11.8364057831693	-6.81984238956282	-12.8397184618906	-2.30110589761196	-20.3683929900053	-14.1800216586557	-13.678365319295	0.199516923781189	-2.46960115663386
-7.48616455024033	-8.99496300602732	-20.7053835080491	-17.0252938735027	-3.637579656672	-9.49661934538796	-20.5368882490272	-23.5506557228962	-16.3551422751202	-21.0385445883879	-16.5236375341421	-7.65465980926223	-3.637579656672	-5.64803445181964	-22.378847785153	-14.1800216586557	-13.0082137209125	-1.46628847791257	-3.47291383535516
-3.30441857633326	-9.66128516670481	-38.2710142610819	-19.8667366506447	-3.637579656672	-11.3347494438086	-20.3683929900053	-22.5435136064698	-15.183334337377	-21.0385445883879	-16.5236375341421	-7.82315506828412	-3.13592331731137	-5.81270027313649	-23.3821604638743	-13.1767089799344	-12.1733963012131	-1.63095429922942	-5.64803445181964
-2.13261063859007	-8.15631614862288	-17.3584549538415	-2.46960115663386	0.368012182803085	-7.15300346990158	-21.3755351064317	-22.7120088654917	-13.1767089799344	-21.8771914457923	-18.5302628915847	-8.15631614862288	-2.13261063859007	3.37795021896697	-22.5435136064698	-10.6645978454261	-12.8397184618906	-1.63095429922942	-2.97125749599451
-2.46960115663386	-4.30773125505455	-4.97788285343709	4.04810181734952	-0.96080270084687	0.368012182803085	-20.3683929900053	-20.873878767071	-10.3314367650874	-20.3683929900053	-17.1899596948196	-4.97788285343709	-0.294480540169374	4.38509233539331	-19.5335755703059	-6.14969079118029	-11.0015883634699	1.03816378118563	0.368012182803085
0.0348511024643301	-4.97788285343709	-15.3518295963989	-3.13592331731137	-0.459146361486233	-6.81984238956282	-20.7053835080491	-19.5335755703059	-10.833093104448	-21.0385445883879	-12.3380621225299	-2.80276223697261	0.0348511024643301	-0.627641620508129	-18.1971018112459	-4.47622651407644	-9.66128516670481	2.04147645990692	0.869668522163735
-0.796136879530025	-7.65465980926223	-16.1866470160983	-11.1700836224918	4.04810181734952	-8.32481140764477	-21.7086961867704	-18.8634239719234	-9.82978042572671	-21.2070398474098	-8.82646774700542	-2.97125749599451	0.368012182803085	-2.30110589761196	-19.2004144899672	-2.46960115663386	-8.82646774700542	1.20665904020753	0.0348511024643301
-5.47953919279774	-7.48616455024033	-22.378847785153	-14.3485169176776	0.199516923781189	-1.46628847791257	-21.8771914457923	-20.0352319096666	-8.82646774700542	-21.8771914457923	-9.49661934538796	-1.29779321889067	1.87298120088502	-0.459146361486233	-19.0319192309453	-2.13261063859007	-7.65465980926223	1.20665904020753	-0.459146361486233
-5.64803445181964	-3.13592331731137	-16.1866470160983	2.37463754024567	1.70831537956816	2.20997171892881	-22.378847785153	-19.5335755703059	-6.81984238956282	-20.873878767071	-10.6645978454261	0.0348511024643301	3.71494073701076	2.04147645990692	-15.0148390783551	-1.12929795986878	-5.81270027313649	2.87629387960631	-0.459146361486233
3.2132843976501	-2.13261063859007	-16.6883033554589	2.04147645990692	0.869668522163735	1.70831537956816	-22.0418572671092	-19.0319192309453	-7.32149872892347	-21.8771914457923	-9.32812408636606	-0.459146361486233	2.04147645990692	3.88343599603265	-13.0082137209125	0.0348511024643301	-5.31104393377585	2.54313279926755	-0.96080270084687
4.2165970763714	-2.80276223697261	-16.8567986144808	-3.47291383535516	-2.30110589761196	1.53982012054627	-21.7086961867704	-18.5302628915847	-6.81984238956282	-21.0385445883879	-9.32812408636606	0.701173263141825	4.38509233539331	4.71825341573206	-12.1733963012131	2.71162805828946	-3.8060749156939	2.87629387960631	1.87298120088502
4.04810181734952	-5.64803445181964	-25.7257763393606	-8.48947722896162	1.87298120088502	-0.627641620508129	-22.5435136064698	-19.8667366506447	-7.98782088960098	-21.2070398474098	-11.6717399618524	0.368012182803085	4.04810181734952	6.72487877317464	-13.5098700602731	2.71162805828946	-4.97788285343709	2.37463754024567	3.37795021896697
-0.294480540169374	-7.15300346990158	-32.415804010071	-16.3551422751202	-2.13261063859007	-12.3380621225299	-22.378847785153	-20.3683929900053	-9.32812408636606	-20.873878767071	-10.833093104448	-0.125985281147479	4.2165970763714	1.53982012054627	-14.1800216586557	0.0348511024643301	-4.8093875944152	1.87298120088502	-0.125985281147479
-0.459146361486233	-7.82315506828412	-15.8534859357595	-5.81270027313649	-6.81984238956282	-3.30441857633326	-23.2136652048524	-23.0489993835355	-10.1629415060655	-21.3755351064317	-9.66128516670481	-1.96794481727321	-0.459146361486233	5.55307083543146	-14.8501732570382	-2.30110589761196	-7.82315506828412	-1.12929795986878	-2.80276223697261
-4.8093875944152	-8.32481140764477	-22.8805041245136	-5.14637811245899	-2.30110589761196	-4.47622651407644	-23.0489993835355	-24.5539684016175	-12.8397184618906	-21.2070398474098	-15.5164954177157	-2.97125749599451	-2.13261063859007	2.37463754024567	-15.3518295963989	-4.97788285343709	-11.6717399618524	-3.47291383535516	-8.48947722896162
-9.15962882734416	-14.8501732570382	-29.2373707148852	-14.3485169176776	-9.49661934538796	-10.1629415060655	-24.5539684016175	-29.0688754558633	-17.3584549538415	-22.0418572671092	-20.5368882490272	-6.48285187151903	-5.31104393377585	-7.82315506828412	-20.5368882490272	-9.32812408636606	-15.8534859357595	-7.48616455024033	-13.8468605783169
-9.82978042572671	-18.1971018112459	-37.0992063233387	-22.5435136064698	-14.5131827389944	-16.8567986144808	-25.7257763393606	-34.4224293675135	-18.6987581506066	-21.2070398474098	-24.5539684016175	-10.833093104448	-7.82315506828412	-2.63426697795072	-25.220290562295	-11.0015883634699	-19.7020708293278	-12.1733963012131	-15.5164954177157
-25.0556247409781	-21.7086961867704	-43.4599023514153	-30.7423397329671	-21.0385445883879	-25.5572810803388	-28.065562777142	-39.7798127168688	-21.0385445883879	-21.5402009277485	-29.9075223132677	-18.8634239719234	-18.8634239719234	-8.32481140764477	-31.9141476707103	-15.183334337377	-24.3854731425956	-18.6987581506066	-20.873878767071
-27.0622500984207	-25.220290562295	-43.1229118333715	-25.7257763393606	-26.3920985000381	-22.8805041245136	-29.7390270542458	-43.2914070923934	-23.3821604638743	-21.0385445883879	-33.9207730281529	-23.5506557228962	-13.3452042389563	-16.5236375341421	-34.4224293675135	-20.3683929900053	-29.0688754558633	-22.5435136064698	-26.7290890180819
-30.0760175722896	-34.0892682871748	-42.7897507530327	-22.0418572671092	-29.2373707148852	-24.8871294819562	-32.5842992690929	-47.3084872449836	-28.2340580361639	-22.2103525261311	-37.6046921004044	-26.2274326787213	-24.3854731425956	-18.3617676325627	-36.7660452429999	-25.5572810803388	-33.2544508674754	-24.8871294819562	-31.7456524116884
-32.5842992690929	-34.2577635461967	-45.9681840482185	-28.9042096345464	-31.0793302510109	-27.5639064377813	-32.5842992690929	-47.9748094056611	-30.0760175722896	-21.7086961867704	-38.106348439765	-27.5639064377813	-16.5236375341421	-25.5572810803388	-38.4395095201038	-27.9008969558251	-34.5909246265354	-25.8904421606775	-34.2577635461967
-28.7357143755245	-31.7456524116884	-48.8134562630655	-35.5942373052567	-32.9174603494316	-29.9075223132677	-33.4191166887922	-49.4836078614481	-29.7390270542458	-21.0385445883879	-42.1195991546502	-28.7357143755245	-21.3755351064317	-26.0589374196994	-40.7831253955901	-28.5672191165026	-35.4295714839399	-27.2307453574426	-34.0892682871748
-29.2373707148852	-33.9207730281529	-52.1603848172732	-46.1366793072404	-35.0925809658961	-37.4361968413825	-34.0892682871748	-49.9852642008087	-31.5809865903716	-21.2070398474098	-45.6350229678798	-30.0760175722896	-29.9075223132677	-31.9141476707103	-43.6245681727321	-31.0793302510109	-35.5942373052567	-27.7324016968032	-36.7660452429999
-29.5705317952239	-36.7660452429999	-50.1499300221256	-35.5942373052567	-39.9444785381857	-32.9174603494316	-35.5942373052567	-50.4869205401694	-33.5876119478141	-21.7086961867704	-44.7963761104753	-31.4124913313497	-25.3887858213169	-27.0622500984207	-43.1229118333715	-33.756107206836	-36.0958936446174	-29.7390270542458	-37.9378531807431
-31.5809865903716	-37.2677015823606	-47.6416483253224	-31.7456524116884	-32.7527945281147	-36.0958936446174	-35.9312278233005	-48.6449610040436	-33.756107206836	-21.0385445883879	-37.2677015823606	-30.2406833936065	-28.7357143755245	-29.0688754558633	-40.947791216907	-33.4191166887922	-35.261076224918	-29.0688754558633	-38.2710142610819
-32.2473087510491	-35.7627325642786	-48.8134562630655	-37.6046921004044	-37.2677015823606	-36.7660452429999	-34.7594198855573	-46.1366793072404	-33.9207730281529	-21.0385445883879	-40.947791216907	-28.9042096345464	-27.3954111787594	-35.5942373052567	-40.947791216907	-32.415804010071	-32.5842992690929	-27.7324016968032	-38.4395095201038
-28.7357143755245	-34.4224293675135	-47.6416483253224	-37.7693579217212	-34.2577635461967	-31.7456524116884	-32.415804010071	-43.793063431754	-32.0826429297322	-20.7053835080491	-46.8068309056229	-26.8937548393988	-28.9042096345464	-28.4025532951858	-38.9411658594644	-29.2373707148852	-29.2373707148852	-25.3887858213169	-34.4224293675135
-26.7290890180819	-32.5842992690929	-49.1466173434043	-45.9681840482185	-35.9312278233005	-34.5909246265354	-29.5705317952239	-41.1162864759289	-31.4124913313497	-21.7086961867704	-40.7831253955901	-24.5539684016175	-26.56059375906	-31.2439960723278	-37.6046921004044	-28.5672191165026	-26.0589374196994	-23.3821604638743	-32.7527945281147
-25.5572810803388	-30.0760175722896	-44.1262245120928	-32.7527945281147	-28.4025532951858	-30.910834991989	-28.4025532951858	-38.7726706004425	-30.5776739116503	-21.0385445883879	-40.2814690562295	-21.7086961867704	-26.7290890180819	-24.7186342229343	-34.2577635461967	-26.56059375906	-22.5435136064698	-20.5368882490272	-29.4058659739071
-29.4058659739071	-29.9075223132677	-38.6080047791257	-19.5335755703059	-25.8904421606775	-23.5506557228962	-28.2340580361639	-37.7693579217212	-30.4091786526284	-21.3755351064317	-36.9345405020218	-20.2037271686885	-24.8871294819562	-27.2307453574426	-31.7456524116884	-26.56059375906	-22.0418572671092	-18.6987581506066	-31.0793302510109
-24.8871294819562	-28.4025532951858	-36.7660452429999	-22.0418572671092	-23.715321544213	-30.7423397329671	-25.3887858213169	-35.5942373052567	-28.7357143755245	-21.0385445883879	-33.5876119478141	-18.3617676325627	-20.7053835080491	-28.065562777142	-30.5776739116503	-24.7186342229343	-19.7020708293278	-18.028606552224	-30.4091786526284
-19.5335755703059	-26.7290890180819	-37.0992063233387	-27.7324016968032	-20.2037271686885	-33.756107206836	-22.8805041245136	-33.756107206836	-27.5639064377813	-21.3755351064317	-30.910834991989	-17.3584549538415	-20.873878767071	-25.5572810803388	-29.2373707148852	-22.378847785153	-17.8601112932021	-16.3551422751202	-26.8937548393988
-23.715321544213	-26.7290890180819	-38.106348439765	-34.7594198855573	-22.7120088654917	-28.4025532951858	-19.7020708293278	-31.5809865903716	-26.56059375906	-20.5368882490272	-29.9075223132677	-15.3518295963989	-19.0319192309453	-25.0556247409781	-29.0688754558633	-21.8771914457923	-15.5164954177157	-15.183334337377	-26.3920985000381
-19.0319192309453	-21.0385445883879	-35.5942373052567	-27.7324016968032	-18.6987581506066	-21.2070398474098	-17.1899596948196	-30.4091786526284	-27.5639064377813	-20.5368882490272	-27.2307453574426	-14.6816779980163	-17.6916160341802	-21.7086961867704	-28.5672191165026	-22.5435136064698	-16.3551422751202	-15.6849906767376	-26.7290890180819
-13.0082137209125	-15.5164954177157	-26.3920985000381	-15.0148390783551	-14.3485169176776	-15.3518295963989	-16.0219811947814	-30.7423397329671	-29.2373707148852	-21.2070398474098	-26.56059375906	-14.5131827389944	-15.5164954177157	-25.7257763393606	-26.0589374196994	-25.3887858213169	-19.5335755703059	-16.1866470160983	-28.9042096345464
-12.8397184618906	-14.6816779980163	-28.9042096345464	-18.028606552224	-13.1767089799344	-17.0252938735027	-14.5131827389944	-28.9042096345464	-29.4058659739071	-21.2070398474098	-24.7186342229343	-14.0115263996338	-20.7053835080491	-21.0385445883879	-26.2274326787213	-23.715321544213	-19.8667366506447	-16.5236375341421	-26.2274326787213
-11.5032447028305	-18.3617676325627	-24.8871294819562	-18.8634239719234	-14.0115263996338	-17.3584549538415	-13.5098700602731	-27.5639064377813	-28.5672191165026	-21.2070398474098	-22.8805041245136	-11.6717399618524	-21.8771914457923	-21.0385445883879	-25.5572810803388	-21.2070398474098	-18.5302628915847	-15.0148390783551	-24.0523120622568
-11.3347494438086	-20.0352319096666	-38.7726706004425	-27.9008969558251	-13.0082137209125	-22.0418572671092	-13.1767089799344	-27.7324016968032	-27.0622500984207	-21.0385445883879	-24.3854731425956	-11.8364057831693	-23.5506557228962	-16.3551422751202	-26.7290890180819	-19.5335755703059	-17.3584549538415	-15.5164954177157	-21.7086961867704
-11.5032447028305	-19.7020708293278	-27.3954111787594	-29.2373707148852	-12.1733963012131	-26.7290890180819	-14.3485169176776	-29.9075223132677	-26.56059375906	-21.2070398474098	-27.3954111787594	-15.0148390783551	-20.3683929900053	-19.8667366506447	-29.2373707148852	-20.2037271686885	-18.8634239719234	-17.0252938735027	-25.7257763393606
-12.1733963012131	-19.365080311284	-31.9141476707103	-15.183334337377	-11.0015883634699	-20.3683929900053	-14.5131827389944	-31.2439960723278	-24.7186342229343	-21.0385445883879	-28.4025532951858	-18.5302628915847	-18.1971018112459	-23.8838168032349	-28.2340580361639	-20.2037271686885	-20.7053835080491	-19.2004144899672	-27.3954111787594
-13.1767089799344	-18.8634239719234	-22.8805041245136	-16.1866470160983	-10.3314367650874	-20.3683929900053	-14.6816779980163	-32.2473087510491	-25.0556247409781	-21.2070398474098	-31.9141476707103	-19.5335755703059	-16.3551422751202	-19.5335755703059	-29.2373707148852	-18.6987581506066	-22.378847785153	-19.2004144899672	-25.7257763393606
-17.1899596948196	-18.3617676325627	-15.3518295963989	-21.0385445883879	-12.6750526405737	-20.2037271686885	-13.678365319295	-34.4224293675135	-25.5572810803388	-20.5368882490272	-31.2439960723278	-22.5435136064698	-7.48616455024033	-22.8805041245136	-32.0826429297322	-17.8601112932021	-23.0489993835355	-20.873878767071	-26.3920985000381
-16.5236375341421	-21.0385445883879	-32.0826429297322	-33.2544508674754	-13.8468605783169	-35.5942373052567	-15.3518295963989	-38.4395095201038	-27.9008969558251	-20.873878767071	-34.5909246265354	-26.0589374196994	-33.756107206836	-27.5639064377813	-36.7660452429999	-20.2037271686885	-24.5539684016175	-25.0556247409781	-29.2373707148852
-19.0319192309453	-26.2274326787213	-33.2544508674754	-39.611317457847	-19.365080311284	-40.7831253955901	-19.5335755703059	-42.2880944136721	-32.0826429297322	-21.0385445883879	-42.9582460120546	-30.4091786526284	-30.4091786526284	-27.7324016968032	-40.947791216907	-23.715321544213	-25.7257763393606	-29.5705317952239	-34.2577635461967
-23.8838168032349	-31.9141476707103	-33.756107206836	-27.0622500984207	-24.2169778835737	-29.9075223132677	-23.3821604638743	-44.1262245120928	-33.4191166887922	-21.5402009277485	-44.2947197711147	-34.7594198855573	-28.4025532951858	-32.9174603494316	-41.7864380743114	-25.8904421606775	-28.2340580361639	-33.4191166887922	-37.9378531807431
-36.4328841626612	-34.5909246265354	-32.7527945281147	-28.4025532951858	-23.0489993835355	-32.0826429297322	-25.220290562295	-43.6245681727321	-33.0859556084535	-21.0385445883879	-45.7996887891966	-36.0958936446174	-31.0793302510109	-31.2439960723278	-41.6179428152895	-24.7186342229343	-27.3954111787594	-33.9207730281529	-38.106348439765
-31.2439960723278	-38.4395095201038	-37.4361968413825	-32.9174603494316	-32.5842992690929	-36.0958936446174	-26.56059375906	-43.9615586907759	-33.4191166887922	-21.5402009277485	-47.6416483253224	-37.4361968413825	-30.0760175722896	-25.8904421606775	-42.456589672694	-22.0418572671092	-25.8904421606775	-34.5909246265354	-35.7627325642786
-30.7423397329671	-38.7726706004425	-43.793063431754	-44.2947197711147	-33.2544508674754	-40.4461348775463	-28.065562777142	-44.9648713694972	-33.2544508674754	-20.7053835080491	-48.9781220843824	-39.1096611184863	-32.0826429297322	-33.0859556084535	-44.4632150301366	-22.5435136064698	-23.8838168032349	-35.0925809658961	-34.9279151445792
-34.4224293675135	-39.2743269398032	-49.1466173434043	-52.9952022369726	-32.9174603494316	-47.1399919859617	-30.2406833936065	-46.9714967269398	-34.5909246265354	-21.0385445883879	-50.8200816205081	-39.4428221988251	-35.261076224918	-32.7527945281147	-46.9714967269398	-24.7186342229343	-23.2136652048524	-35.7627325642786	-34.7594198855573
-35.9312278233005	-39.611317457847	-44.9648713694972	-38.7726706004425	-36.7660452429999	-42.456589672694	-32.415804010071	-48.3117999237049	-35.261076224918	-21.3755351064317	-48.9781220843824	-41.2847817349508	-39.2743269398032	-37.4361968413825	-46.4698403875792	-27.5639064377813	-25.0556247409781	-36.9345405020218	-38.9411658594644
-35.7627325642786	-42.2880944136721	-46.9714967269398	-39.611317457847	-36.597549983978	-37.9378531807431	-35.0925809658961	-50.6515863614862	-36.2643889036393	-21.0385445883879	-49.9852642008087	-44.7963761104753	-39.7798127168688	-31.5809865903716	-47.9748094056611	-29.7390270542458	-27.2307453574426	-38.4395095201038	-37.6046921004044
-42.1195991546502	-45.4665277088579	-52.8267069779507	-47.9748094056611	-40.7831253955901	-48.6449610040436	-38.106348439765	-52.8267069779507	-38.7726706004425	-20.873878767071	-55.8404744518196	-46.4698403875792	-38.9411658594644	-37.2677015823606	-50.3184252811475	-31.4124913313497	-28.2340580361639	-39.611317457847	-37.9378531807431
-42.6212554940108	-43.9615586907759	-53.830019656672	-51.4902332188907	-41.1162864759289	-49.9852642008087	-38.6080047791257	-53.3283633173114	-37.4361968413825	-21.2070398474098	-58.180260889601	-45.6350229678798	-39.611317457847	-40.947791216907	-50.8200816205081	-30.7423397329671	-28.4025532951858	-38.7726706004425	-38.4395095201038
-39.2743269398032	-41.1162864759289	-56.1736355321584	-55.8404744518196	-37.9378531807431	-44.9648713694972	-36.597549983978	-51.8233942992294	-34.0892682871748	-21.0385445883879	-54.6686665140764	-43.4599023514153	-39.1096611184863	-34.0892682871748	-49.6482736827649	-28.5672191165026	-25.0556247409781	-36.2643889036393	-34.4224293675135
-36.7660452429999	-40.947791216907	-50.3184252811475	-40.6146301365682	-36.0958936446174	-37.4361968413825	-35.5942373052567	-50.6515863614862	-30.7423397329671	-20.873878767071	-55.0018275944152	-40.2814690562295	-37.9378531807431	-29.2373707148852	-45.6350229678798	-25.8904421606775	-23.8838168032349	-32.7527945281147	-32.2473087510491
-32.9174603494316	-41.2847817349508	-46.4698403875792	-32.0826429297322	-35.4295714839399	-38.106348439765	-34.9279151445792	-49.8167689417868	-29.9075223132677	-21.2070398474098	-51.6587284779126	-37.2677015823606	-33.9207730281529	-27.3954111787594	-42.6212554940108	-25.0556247409781	-23.3821604638743	-30.5776739116503	-30.5776739116503
-33.5876119478141	-40.4461348775463	-49.3151126024262	-35.7627325642786	-36.597549983978	-37.0992063233387	-34.9279151445792	-49.9852642008087	-29.7390270542458	-21.8771914457923	-49.9852642008087	-36.7660452429999	-30.2406833936065	-31.5809865903716	-43.2914070923934	-23.8838168032349	-23.5506557228962	-29.7390270542458	-31.4124913313497
-43.9615586907759	-39.4428221988251	-50.8200816205081	-44.2947197711147	-31.0793302510109	-39.1096611184863	-33.9207730281529	-48.143304664683	-28.5672191165026	-20.7053835080491	-48.4764657450217	-34.9279151445792	-26.8937548393988	-21.0385445883879	-42.2880944136721	-20.3683929900053	-21.2070398474098	-27.5639064377813	-25.7257763393606
-42.1195991546502	-41.6179428152895	-55.0018275944152	-50.98857687953	-31.9141476707103	-41.1162864759289	-33.9207730281529	-48.3117999237049	-29.4058659739071	-20.5368882490272	-45.4665277088579	-33.5876119478141	-27.9008969558251	-20.7053835080491	-42.456589672694	-21.2070398474098	-20.5368882490272	-27.0622500984207	-26.2274326787213
-32.9174603494316	-41.9511038956283	-51.4902332188907	-37.6046921004044	-32.9174603494316	-37.0992063233387	-34.2577635461967	-47.9748094056611	-30.0760175722896	-21.2070398474098	-43.2914070923934	-34.0892682871748	-29.5705317952239	-29.4058659739071	-43.6245681727321	-23.2136652048524	-22.0418572671092	-27.7324016968032	-29.4058659739071
-35.5942373052567	-41.2847817349508	-50.1499300221256	-34.2577635461967	-32.9174603494316	-38.6080047791257	-35.5942373052567	-48.3117999237049	-31.0793302510109	-21.5402009277485	-48.8134562630655	-35.7627325642786	-32.9174603494316	-27.9008969558251	-45.1333666285191	-24.7186342229343	-25.0556247409781	-28.9042096345464	-29.5705317952239
-36.597549983978	-41.2847817349508	-52.9952022369726	-40.4461348775463	-32.7527945281147	-41.1162864759289	-36.4328841626612	-47.6416483253224	-31.4124913313497	-20.7053835080491	-46.8068309056229	-37.2677015823606	-28.7357143755245	-31.9141476707103	-46.3013451285573	-25.220290562295	-26.7290890180819	-29.2373707148852	-28.9042096345464
-39.9444785381857	-39.9444785381857	-53.4968585763333	-45.7996887891966	-38.6080047791257	-42.9582460120546	-36.9345405020218	-47.9748094056611	-30.5776739116503	-20.7053835080491	-46.8068309056229	-39.2743269398032	-28.4025532951858	-31.0793302510109	-49.6482736827649	-24.0523120622568	-27.9008969558251	-30.5776739116503	-26.2274326787213
-41.2847817349508	-39.4428221988251	-56.3421307911803	-51.9918895582513	-32.2473087510491	-46.8068309056229	-35.5942373052567	-45.7996887891966	-30.2406833936065	-20.5368882490272	-45.4665277088579	-40.4461348775463	-41.7864380743114	-31.9141476707103	-51.8233942992294	-25.3887858213169	-28.9042096345464	-31.5809865903716	-26.8937548393988
-37.9378531807431	-38.4395095201038	-58.5172514076448	-41.9511038956283	-36.4328841626612	-39.611317457847	-34.2577635461967	-44.7963761104753	-29.7390270542458	-21.2070398474098	-43.793063431754	-41.6179428152895	-32.5842992690929	-31.0793302510109	-53.4968585763333	-27.0622500984207	-30.0760175722896	-31.7456524116884	-27.0622500984207
-33.756107206836	-39.1096611184863	-38.6080047791257	-30.7423397329671	-32.415804010071	-32.7527945281147	-33.756107206836	-41.9511038956283	-28.4025532951858	-21.0385445883879	-42.6212554940108	-39.1096611184863	-27.9008969558251	-27.3954111787594	-50.98857687953	-25.5572810803388	-31.0793302510109	-29.9075223132677	-23.5506557228962
-33.0859556084535	-37.9378531807431	-41.2847817349508	-35.261076224918	-24.2169778835737	-40.6146301365682	-32.2473087510491	-39.7798127168688	-28.4025532951858	-20.3683929900053	-38.9411658594644	-38.106348439765	-30.4091786526284	-27.7324016968032	-50.98857687953	-25.220290562295	-30.7423397329671	-28.5672191165026	-23.715321544213
-31.2439960723278	-33.0859556084535	-40.7831253955901	-38.6080047791257	-24.0523120622568	-35.0925809658961	-30.7423397329671	-37.0992063233387	-27.0622500984207	-20.3683929900053	-36.597549983978	-35.7627325642786	-29.5705317952239	-21.7086961867704	-48.8134562630655	-23.2136652048524	-28.5672191165026	-26.0589374196994	-19.0319192309453
-36.2643889036393	-33.4191166887922	-46.1366793072404	-46.3013451285573	-21.2070398474098	-32.5842992690929	-30.7423397329671	-35.9312278233005	-28.7357143755245	-22.0418572671092	-38.4395095201038	-35.4295714839399	-25.7257763393606	-26.2274326787213	-50.98857687953	-24.5539684016175	-28.5672191165026	-25.7257763393606	-21.0385445883879
-35.4295714839399	-35.4295714839399	-43.2914070923934	-40.1129737972076	-22.5435136064698	-31.7456524116884	-31.2439960723278	-34.4224293675135	-28.5672191165026	-20.873878767071	-35.4295714839399	-35.9312278233005	-31.0793302510109	-25.8904421606775	-49.3151126024262	-26.0589374196994	-28.2340580361639	-25.7257763393606	-22.2103525261311
-27.0622500984207	-33.0859556084535	-38.6080047791257	-26.0589374196994	-21.7086961867704	-28.065562777142	-31.2439960723278	-32.7527945281147	-28.4025532951858	-21.5402009277485	-32.5842992690929	-36.2643889036393	-26.7290890180819	-25.8904421606775	-47.3084872449836	-26.56059375906	-29.9075223132677	-24.7186342229343	-21.8771914457923
-26.8937548393988	-31.2439960723278	-39.611317457847	-29.2373707148852	-14.6816779980163	-25.0556247409781	-29.2373707148852	-29.7390270542458	-27.0622500984207	-21.7086961867704	-27.9008969558251	-33.4191166887922	-32.2473087510491	-25.7257763393606	-45.9681840482185	-25.3887858213169	-29.9075223132677	-23.2136652048524	-20.7053835080491
-30.2406833936065	-33.2544508674754	-42.9582460120546	-32.2473087510491	-16.1866470160983	-24.5539684016175	-27.5639064377813	-27.0622500984207	-26.0589374196994	-21.7086961867704	-25.5572810803388	-31.4124913313497	-27.3954111787594	-21.0385445883879	-45.6350229678798	-23.2136652048524	-29.2373707148852	-21.3755351064317	-15.8534859357595
-23.0489993835355	-32.2473087510491	-47.4731530663005	-41.6179428152895	-14.5131827389944	-30.0760175722896	-26.56059375906	-27.2307453574426	-26.3920985000381	-21.2070398474098	-23.8838168032349	-29.7390270542458	-27.2307453574426	-17.0252938735027	-44.7963761104753	-23.2136652048524	-26.7290890180819	-19.0319192309453	-13.3452042389563
-25.0556247409781	-26.8937548393988	-47.3084872449836	-37.6046921004044	-15.183334337377	-26.3920985000381	-26.2274326787213	-25.220290562295	-25.3887858213169	-20.873878767071	-24.8871294819562	-26.8937548393988	-24.0523120622568	-17.6916160341802	-42.1195991546502	-24.3854731425956	-24.3854731425956	-17.1899596948196	-14.3485169176776
-21.5402009277485	-21.8771914457923	-39.611317457847	-17.1899596948196	-10.6645978454261	-19.8667366506447	-25.3887858213169	-24.5539684016175	-23.715321544213	-21.0385445883879	-22.2103525261311	-23.715321544213	-13.0082137209125	-14.0115263996338	-36.4328841626612	-22.7120088654917	-21.8771914457923	-13.5098700602731	-12.8397184618906
-15.8534859357595	-19.5335755703059	-40.2814690562295	-15.183334337377	-10.1629415060655	-16.0219811947814	-24.0523120622568	-22.8805041245136	-22.2103525261311	-22.0418572671092	-17.5269502128634	-19.2004144899672	-14.1800216586557	-16.3551422751202	-31.7456524116884	-20.3683929900053	-19.0319192309453	-9.32812408636606	-9.82978042572671
-14.0115263996338	-15.183334337377	-34.0892682871748	-16.5236375341421	-5.64803445181964	-11.1700836224918	-20.7053835080491	-19.0319192309453	-18.3617676325627	-21.2070398474098	-15.3518295963989	-12.6750526405737	-8.48947722896162	-4.97788285343709	-26.56059375906	-14.6816779980163	-12.5065573815518	-3.97457017471579	-2.30110589761196
-9.82978042572671	-8.99496300602732	-49.3151126024262	-22.5435136064698	3.04478913862822	-11.0015883634699	-16.3551422751202	-16.1866470160983	-11.5032447028305	-20.3683929900053	-5.81270027313649	-6.98450821087968	-2.80276223697261	4.88674867475395	-21.5402009277485	-7.82315506828412	-4.47622651407644	3.2132843976501	5.38840501411458
-5.9811955321584	-6.65134713054093	-37.9378531807431	-17.3584549538415	-0.96080270084687	-9.15962882734416	-14.6816779980163	-14.0115263996338	-8.32481140764477	-20.873878767071	-7.82315506828412	-3.97457017471579	-1.12929795986878	-6.48285187151903	-18.3617676325627	-7.48616455024033	0.0348511024643301	6.56021295185779	5.55307083543146
-2.80276223697261	-3.47291383535516	-20.873878767071	-1.29779321889067	2.20997171892881	-1.29779321889067	-14.1800216586557	-14.0115263996338	-5.64803445181964	-21.3755351064317	-3.97457017471579	-0.627641620508129	12.7485842832074	-4.1430654337377	-14.3485169176776	-6.81984238956282	1.70831537956816	9.90331206836042	5.2199097550927
-6.65134713054093	-2.13261063859007	-29.2373707148852	0.869668522163735	8.39834305027848	-1.12929795986878	-13.8468605783169	-14.0115263996338	-3.47291383535516	-22.378847785153	-3.30441857633326	0.0348511024643301	6.89337403219655	-3.13592331731137	-12.5065573815518	-5.47953919279774	2.87629387960631	10.9104541847868	6.89337403219655
-8.32481140764477	1.70831537956816	-27.3954111787594	-2.97125749599451	9.73864624704358	2.71162805828946	-12.6750526405737	-12.1733963012131	0.368012182803085	-20.7053835080491	-1.63095429922942	1.37132486152437	2.20997171892881	-0.796136879530025	-11.1700836224918	-1.29779321889067	6.72487877317464	13.9203922209506	11.4121105241474
6.72487877317464	2.71162805828946	-31.5809865903716	-10.4999320241093	5.89006135347525	6.223222433814	-11.6717399618524	-10.6645978454261	2.20997171892881	-20.7053835080491	-2.30110589761196	2.87629387960631	12.7485842832074	0.701173263141825	-11.1700836224918	1.03816378118563	9.40165572899976	15.4253612390326	12.7485842832074
6.05855661249713	4.88674867475395	-33.4191166887922	-11.8364057831693	10.2403025864042	-0.125985281147479	-11.1700836224918	-10.833093104448	4.38509233539331	-20.7053835080491	0.869668522163735	2.54313279926755	10.9104541847868	1.87298120088502	-11.1700836224918	2.20997171892881	11.0751200061036	14.75520964065	13.0855748012512
5.89006135347525	3.04478913862822	-28.2340580361639	3.2132843976501	17.0988255161364	8.89999938963912	-13.1767089799344	-10.833093104448	5.55307083543146	-21.8771914457923	1.87298120088502	2.04147645990692	9.57015098802167	5.55307083543146	-9.49661934538796	4.71825341573206	8.89999938963912	14.75520964065	13.9203922209506
6.39171769283588	5.05141449607079	-24.2169778835737	5.05141449607079	13.9203922209506	15.0922001586938	-11.3347494438086	-7.65465980926223	8.39834305027848	-20.3683929900053	1.37132486152437	7.06186929121843	12.4154232028687	10.4049684077211	-6.14969079118029	11.4121105241474	12.4154232028687	18.2706334538796	17.9374723735408
5.55307083543146	9.57015098802167	-27.3954111787594	2.37463754024567	16.4286739177539	10.7419589257648	-11.0015883634699	-6.48285187151903	11.0751200061036	-20.7053835080491	3.2132843976501	10.2403025864042	16.264008096437	13.2502406225681	-3.13592331731137	17.2673207751583	15.0922001586938	22.9540357671473	23.1225310261692
10.9104541847868	6.72487877317464	-28.5672191165026	-1.96794481727321	16.9303302571145	7.56352563057909	-10.3314367650874	-4.47622651407644	13.2502406225681	-20.873878767071	5.72156609445334	11.9137668635081	22.1192183474479	22.6208746868086	-1.96794481727321	22.7893699458305	17.4319865964752	25.4661469016556	29.4793976165408
11.4121105241474	7.89668671091782	-32.0826429297322	-7.98782088960098	16.4286739177539	12.2469279438468	-8.65797248798351	-3.13592331731137	15.2568659800107	-20.3683929900053	5.89006135347525	12.0784326848249	19.105450873579	26.9711159197376	-1.79944955825131	24.795995303273	19.9440977309834	25.4661469016556	32.1561745723659
12.0784326848249	11.4121105241474	-24.8871294819562	9.73864624704358	21.2805714900435	21.4490667490654	-10.833093104448	-2.63426697795072	15.5938564980545	-21.8771914457923	6.72487877317464	12.4154232028687	25.9678032410163	29.6478928755627	1.20665904020753	25.6308127229725	19.105450873579	26.1324690623331	32.1561745723659
9.73864624704358	12.5800890241855	-24.0523120622568	17.2673207751583	22.1192183474479	22.6208746868086	-11.5032447028305	-0.125985281147479	15.0922001586938	-21.3755351064317	8.73533356832228	15.2568659800107	26.1324690623331	31.6545182330053	4.04810181734952	26.1324690623331	18.9407850522621	28.4760849378195	33.1594872510872
9.90331206836042	11.2436152651255	-30.910834991989	10.0718073273823	18.2706334538796	17.4319865964752	-11.6717399618524	1.37132486152437	13.7518969619288	-21.2070398474098	12.7485842832074	16.0955128374151	17.4319865964752	29.146236536202	4.04810181734952	24.4590047852293	18.9407850522621	27.8059333394369	31.8230134920272
5.38840501411458	11.4121105241474	-22.378847785153	1.37132486152437	18.6037945342184	13.41873588159	-11.8364057831693	1.87298120088502	10.9104541847868	-20.873878767071	12.0784326848249	15.9270175783932	21.4490667490654	28.9777412771801	2.71162805828946	22.2838841687648	18.4391287129015	27.3042770000763	31.4860229739834
0.199516923781189	7.89668671091782	-29.5705317952239	-7.32149872892347	16.264008096437	6.72487877317464	-10.4999320241093	2.54313279926755	8.06518196993973	-20.873878767071	11.2436152651255	14.0888874799725	20.4457540703441	24.2943389639124	0.368012182803085	18.6037945342184	17.4319865964752	25.1291563836118	27.8059333394369
9.90331206836042	4.54975815671015	-25.220290562295	1.03816378118563	13.7518969619288	7.72819145189594	-10.833093104448	2.37463754024567	6.72487877317464	-20.873878767071	10.0718073273823	12.2469279438468	19.7756024719615	20.614249329366	0.368012182803085	15.4253612390326	14.75520964065	24.2943389639124	24.1258437048905
7.56352563057909	2.04147645990692	-23.3821604638743	2.71162805828946	10.9104541847868	6.72487877317464	-10.6645978454261	3.04478913862822	3.71494073701076	-21.3755351064317	6.72487877317464	12.0784326848249	15.9270175783932	22.1192183474479	1.20665904020753	14.4220485603113	12.0784326848249	24.2943389639124	24.4590047852293
-1.46628847791257	0.869668522163735	-23.715321544213	-2.46960115663386	6.72487877317464	11.5767763454643	-10.1629415060655	3.88343599603265	0.869668522163735	-21.2070398474098	4.88674867475395	12.2469279438468	13.7518969619288	19.9440977309834	0.53650744182498	11.7452716044861	11.2436152651255	22.9540357671473	22.2838841687648
-6.14969079118029	-1.79944955825131	-26.56059375906	-9.49661934538796	6.223222433814	-1.12929795986878	-10.6645978454261	3.71494073701076	-0.294480540169374	-20.873878767071	0.53650744182498	10.7419589257648	12.4154232028687	17.0988255161364	-1.46628847791257	9.90331206836042	9.90331206836042	21.6175620080873	21.7822278294041
-6.65134713054093	-7.65465980926223	-30.4091786526284	-20.3683929900053	-2.97125749599451	-8.48947722896162	-11.0015883634699	2.87629387960631	-3.47291383535516	-20.873878767071	1.37132486152437	8.06518196993973	8.89999938963912	17.9374723735408	-3.97457017471579	6.56021295185779	9.23698990768291	19.4424413916228	18.4391287129015
-5.14637811245899	-9.82978042572671	-26.2274326787213	-11.8364057831693	-2.63426697795072	-5.81270027313649	-11.6717399618524	2.37463754024567	-3.637579656672	-20.7053835080491	-1.63095429922942	4.88674867475395	15.9270175783932	11.7452716044861	-4.8093875944152	3.54644547798885	7.39503037155718	17.2673207751583	14.2535533012894
-6.98450821087968	-10.3314367650874	-24.3854731425956	-3.97457017471579	-3.30441857633326	1.53982012054627	-14.3485169176776	0.0348511024643301	-5.47953919279774	-22.2103525261311	-7.15300346990158	2.37463754024567	4.04810181734952	4.54975815671015	-6.48285187151903	0.53650744182498	3.54644547798885	14.75520964065	10.4049684077211
-12.5065573815518	-11.5032447028305	-25.220290562295	-12.0049010421912	-9.82978042572671	-7.98782088960098	-15.3518295963989	-0.294480540169374	-8.48947722896162	-21.2070398474098	-6.14969079118029	1.20665904020753	-1.96794481727321	0.368012182803085	-8.32481140764477	-0.294480540169374	3.2132843976501	13.9203922209506	11.2436152651255
-10.3314367650874	-10.833093104448	-27.9008969558251	-18.6987581506066	-6.98450821087968	-10.833093104448	-15.8534859357595	-0.627641620508129	-8.99496300602732	-21.0385445883879	-7.48616455024033	1.20665904020753	6.56021295185779	4.04810181734952	-9.15962882734416	0.701173263141825	3.37795021896697	14.0888874799725	12.5800890241855
-7.82315506828412	-10.6645978454261	-32.2473087510491	-28.065562777142	-7.98782088960098	-7.82315506828412	-16.8567986144808	-1.96794481727321	-10.833093104448	-20.7053835080491	-9.82978042572671	-1.29779321889067	-0.125985281147479	3.04478913862822	-11.6717399618524	-1.63095429922942	4.88674867475395	12.0784326848249	10.9104541847868
-13.5098700602731	-13.0082137209125	-28.4025532951858	-21.3755351064317	-7.48616455024033	-4.64472177309834	-19.2004144899672	-3.8060749156939	-12.3380621225299	-20.7053835080491	-11.5032447028305	-4.1430654337377	-2.80276223697261	-4.1430654337377	-12.6750526405737	-5.14637811245899	4.38509233539331	9.23698990768291	6.56021295185779
-14.5131827389944	-16.0219811947814	-23.715321544213	-12.1733963012131	-6.98450821087968	-4.97788285343709	-20.5368882490272	-3.8060749156939	-11.8364057831693	-21.2070398474098	-8.65797248798351	-3.8060749156939	-2.30110589761196	-1.96794481727321	-10.833093104448	-6.31818605020219	2.87629387960631	9.73864624704358	5.05141449607079
-20.873878767071	-15.8534859357595	-24.3854731425956	-13.5098700602731	-7.82315506828412	-7.15300346990158	-21.0385445883879	-3.8060749156939	-12.5065573815518	-20.5368882490272	-7.32149872892347	-3.97457017471579	1.53982012054627	2.37463754024567	-11.8364057831693	-5.31104393377585	3.71494073701076	9.23698990768291	8.06518196993973
-12.8397184618906	-16.5236375341421	-25.0556247409781	-20.5368882490272	-8.48947722896162	-8.99496300602732	-23.2136652048524	-5.31104393377585	-13.8468605783169	-20.7053835080491	-11.5032447028305	-5.14637811245899	-2.63426697795072	-3.30441857633326	-14.0115263996338	-7.32149872892347	1.70831537956816	7.89668671091782	5.89006135347525
-10.6645978454261	-19.2004144899672	-30.5776739116503	-33.2544508674754	-9.66128516670481	-18.1971018112459	-24.3854731425956	-6.98450821087968	-16.3551422751202	-21.2070398474098	-10.1629415060655	-4.97788285343709	-1.96794481727321	-6.81984238956282	-16.5236375341421	-10.1629415060655	0.0348511024643301	7.06186929121843	3.88343599603265
-19.8667366506447	-20.7053835080491	-31.5809865903716	-27.5639064377813	-6.65134713054093	-16.5236375341421	-25.8904421606775	-9.82978042572671	-16.6883033554589	-20.873878767071	-14.6816779980163	-6.14969079118029	-2.30110589761196	-9.32812408636606	-18.5302628915847	-12.1733963012131	-0.96080270084687	4.54975815671015	0.701173263141825
-17.0252938735027	-19.5335755703059	-24.8871294819562	-16.5236375341421	-10.6645978454261	-12.1733963012131	-26.8937548393988	-10.833093104448	-18.028606552224	-21.3755351064317	-14.6816779980163	-5.81270027313649	-9.82978042572671	-6.65134713054093	-17.3584549538415	-13.1767089799344	-2.80276223697261	5.2199097550927	-0.294480540169374
-18.6987581506066	-21.0385445883879	-25.8904421606775	-20.3683929900053	-7.98782088960098	-12.8397184618906	-26.2274326787213	-11.5032447028305	-18.1971018112459	-21.0385445883879	-10.6645978454261	-6.14969079118029	-5.64803445181964	-6.14969079118029	-17.6916160341802	-12.8397184618906	-3.13592331731137	4.38509233539331	0.869668522163735
-16.0219811947814	-21.7086961867704	-25.8904421606775	-23.2136652048524	-5.47953919279774	-11.1700836224918	-25.3887858213169	-12.6750526405737	-18.5302628915847	-21.3755351064317	-14.5131827389944	-6.98450821087968	-8.15631614862288	-7.98782088960098	-19.5335755703059	-12.3380621225299	-3.637579656672	4.2165970763714	2.04147645990692
-15.0148390783551	-18.5302628915847	-30.2406833936065	-31.5809865903716	-7.98782088960098	-16.0219811947814	-24.7186342229343	-13.8468605783169	-19.365080311284	-21.8771914457923	-17.1899596948196	-7.65465980926223	-4.64472177309834	-7.65465980926223	-21.5402009277485	-12.1733963012131	-3.13592331731137	3.71494073701076	1.87298120088502
-12.8397184618906	-19.2004144899672	-28.4025532951858	-28.9042096345464	-1.29779321889067	-16.6883033554589	-26.2274326787213	-13.678365319295	-19.8667366506447	-21.2070398474098	-14.5131827389944	-8.15631614862288	-6.31818605020219	-4.47622651407644	-20.7053835080491	-12.5065573815518	-1.79944955825131	3.2132843976501	3.2132843976501
-13.8468605783169	-18.8634239719234	-26.0589374196994	-16.1866470160983	0.368012182803085	-8.82646774700542	-26.8937548393988	-14.0115263996338	-19.2004144899672	-21.5402009277485	-11.3347494438086	-6.14969079118029	-3.13592331731137	-2.46960115663386	-17.1899596948196	-10.4999320241093	-1.29779321889067	5.2199097550927	3.88343599603265
-18.3617676325627	-18.6987581506066	-21.0385445883879	-16.5236375341421	0.869668522163735	-14.1800216586557	-28.2340580361639	-14.6816779980163	-18.3617676325627	-22.0418572671092	-9.82978042572671	-5.47953919279774	-2.46960115663386	-5.14637811245899	-15.8534859357595	-9.99827568474861	-1.12929795986878	5.89006135347525	4.04810181734952
-14.6816779980163	-16.1866470160983	-36.597549983978	-19.8667366506447	-0.294480540169374	-13.5098700602731	-27.3954111787594	-14.5131827389944	-17.5269502128634	-21.0385445883879	-6.65134713054093	-3.97457017471579	-7.32149872892347	-5.14637811245899	-14.8501732570382	-8.32481140764477	0.701173263141825	7.06186929121843	6.223222433814
-17.0252938735027	-17.0252938735027	-31.7456524116884	-27.5639064377813	3.88343599603265	-17.0252938735027	-28.065562777142	-13.8468605783169	-17.5269502128634	-20.873878767071	-3.30441857633326	-2.63426697795072	-7.32149872892347	-6.81984238956282	-13.5098700602731	-6.98450821087968	3.37795021896697	7.72819145189594	5.2199097550927
-9.82978042572671	-18.3617676325627	-19.7020708293278	-26.56059375906	1.87298120088502	-16.5236375341421	-29.7390270542458	-14.3485169176776	-17.6916160341802	-21.0385445883879	-0.459146361486233	0.0348511024643301	-3.47291383535516	-2.80276223697261	-12.3380621225299	-6.81984238956282	5.05141449607079	9.23698990768291	7.22653511253527
-14.5131827389944	-16.1866470160983	-25.3887858213169	-12.1733963012131	5.05141449607079	-7.32149872892347	-32.2473087510491	-16.1866470160983	-16.5236375341421	-21.5402009277485	0.368012182803085	2.54313279926755	-4.30773125505455	-6.48285187151903	-8.82646774700542	-7.98782088960098	5.72156609445334	10.2403025864042	4.54975815671015
-11.3347494438086	-16.3551422751202	-31.0793302510109	-12.5065573815518	0.869668522163735	-6.65134713054093	-34.0892682871748	-18.6987581506066	-17.1899596948196	-22.378847785153	-0.796136879530025	1.37132486152437	0.0348511024643301	-1.12929795986878	-7.82315506828412	-7.65465980926223	7.22653511253527	10.4049684077211	6.72487877317464
-13.678365319295	-18.028606552224	-25.5572810803388	-20.7053835080491	2.87629387960631	-9.15962882734416	-33.4191166887922	-19.8667366506447	-14.8501732570382	-21.2070398474098	2.71162805828946	2.54313279926755	-2.30110589761196	2.87629387960631	-6.81984238956282	-4.30773125505455	9.40165572899976	11.9137668635081	9.73864624704358
-12.5065573815518	-20.5368882490272	-32.2473087510491	-28.7357143755245	0.869668522163735	-14.1800216586557	-34.7594198855573	-22.8805041245136	-14.6816779980163	-21.2070398474098	-1.46628847791257	2.54313279926755	-12.5065573815518	-6.81984238956282	-8.48947722896162	-4.30773125505455	10.573463666743	11.4121105241474	7.39503037155718
-13.1767089799344	-19.8667366506447	-38.106348439765	-28.7357143755245	-1.79944955825131	-13.3452042389563	-36.0958936446174	-24.0523120622568	-14.6816779980163	-20.7053835080491	-2.63426697795072	4.04810181734952	-3.30441857633326	-7.15300346990158	-8.65797248798351	-4.97788285343709	12.0784326848249	12.9170795422293	7.56352563057909
-18.6987581506066	-20.0352319096666	-33.0859556084535	-14.0115263996338	-2.46960115663386	-7.15300346990158	-37.6046921004044	-24.8871294819562	-14.0115263996338	-21.7086961867704	-2.13261063859007	3.88343599603265	-8.48947722896162	-1.96794481727321	-6.81984238956282	-5.9811955321584	10.9104541847868	12.7485842832074	8.73533356832228
-17.5269502128634	-20.3683929900053	-34.5909246265354	-12.5065573815518	-0.796136879530025	-8.48947722896162	-37.6046921004044	-22.5435136064698	-13.0082137209125	-21.3755351064317	-1.12929795986878	4.71825341573206	-5.31104393377585	-0.294480540169374	-5.81270027313649	-4.64472177309834	11.5767763454643	13.7518969619288	10.9104541847868
-10.6645978454261	-16.3551422751202	-33.756107206836	-18.6987581506066	1.37132486152437	-12.1733963012131	-37.4361968413825	-19.5335755703059	-12.3380621225299	-21.2070398474098	1.03816378118563	6.223222433814	-6.31818605020219	-6.65134713054093	-5.47953919279774	-3.637579656672	12.2469279438468	15.0922001586938	10.2403025864042
-12.3380621225299	-13.8468605783169	-35.7627325642786	-25.8904421606775	3.2132843976501	-13.678365319295	-37.4361968413825	-18.5302628915847	-11.6717399618524	-21.2070398474098	-1.12929795986878	5.55307083543146	-7.15300346990158	-4.47622651407644	-7.82315506828412	-3.13592331731137	12.9170795422293	15.0922001586938	11.2436152651255
-14.8501732570382	-17.1899596948196	-36.597549983978	-30.5776739116503	-3.8060749156939	-13.8468605783169	-37.0992063233387	-15.6849906767376	-11.5032447028305	-21.3755351064317	1.03816378118563	6.39171769283588	-8.82646774700542	-0.627641620508129	-7.65465980926223	-3.30441857633326	12.7485842832074	15.5938564980545	11.5767763454643
-16.6883033554589	-17.5269502128634	-29.0688754558633	-13.678365319295	1.37132486152437	-8.15631614862288	-37.6046921004044	-12.1733963012131	-10.1629415060655	-21.8771914457923	1.37132486152437	8.06518196993973	-5.14637811245899	-0.125985281147479	-5.81270027313649	-2.97125749599451	11.7452716044861	15.0922001586938	10.573463666743
-11.6717399618524	-14.0115263996338	-26.8937548393988	-11.1700836224918	6.39171769283588	-7.48616455024033	-36.2643889036393	-9.15962882734416	-9.32812408636606	-21.0385445883879	3.71494073701076	9.90331206836042	-0.459146361486233	-1.46628847791257	-4.30773125505455	-1.12929795986878	11.2436152651255	17.2673207751583	11.7452716044861
-10.4999320241093	-14.1800216586557	-30.7423397329671	-18.1971018112459	2.20997171892881	-4.97788285343709	-36.597549983978	-7.65465980926223	-8.82646774700542	-21.7086961867704	5.55307083543146	10.4049684077211	-6.98450821087968	1.20665904020753	-4.97788285343709	0.53650744182498	11.9137668635081	17.6004818554971	14.75520964065
-10.3314367650874	-14.5131827389944	-35.9312278233005	-21.5402009277485	2.54313279926755	-15.0148390783551	-36.4328841626612	-6.98450821087968	-7.82315506828412	-21.7086961867704	1.20665904020753	9.90331206836042	-8.32481140764477	4.54975815671015	-5.64803445181964	2.20997171892881	12.5800890241855	17.4319865964752	15.4253612390326
-6.65134713054093	-13.3452042389563	-38.7726706004425	-25.7257763393606	3.54644547798885	-17.0252938735027	-34.2577635461967	-7.15300346990158	-7.98782088960098	-21.0385445883879	-0.627641620508129	12.0784326848249	9.06849464866103	3.04478913862822	-5.31104393377585	3.04478913862822	14.2535533012894	18.6037945342184	16.7656644357977
-5.31104393377585	-11.0015883634699	-33.0859556084535	-7.98782088960098	2.04147645990692	-1.63095429922942	-33.0859556084535	-7.98782088960098	-6.98450821087968	-21.3755351064317	1.53982012054627	13.5872311406119	-1.63095429922942	-0.96080270084687	-2.13261063859007	2.37463754024567	13.41873588159	20.2772588113222	15.2568659800107
-7.15300346990158	-9.66128516670481	-32.5842992690929	-2.13261063859007	4.2165970763714	-2.63426697795072	-32.0826429297322	-9.66128516670481	-7.98782088960098	-21.7086961867704	1.70831537956816	13.5872311406119	-3.8060749156939	5.05141449607079	-0.627641620508129	2.71162805828946	12.0784326848249	20.7789151506828	16.9303302571145
-6.48285187151903	-6.98450821087968	-33.4191166887922	0.368012182803085	6.39171769283588	-0.796136879530025	-29.9075223132677	-11.5032447028305	-8.48947722896162	-21.2070398474098	1.70831537956816	14.2535533012894	1.87298120088502	3.88343599603265	-0.459146361486233	3.54644547798885	12.4154232028687	21.2805714900435	18.1021381948577
-5.47953919279774	-6.98450821087968	-33.0859556084535	-6.65134713054093	5.38840501411458	1.20665904020753	-26.56059375906	-11.6717399618524	-6.98450821087968	-21.0385445883879	0.701173263141825	16.264008096437	6.72487877317464	4.38509233539331	0.199516923781189	5.89006135347525	13.5872311406119	23.6241873655299	20.7789151506828
-7.15300346990158	-8.15631614862288	-33.0859556084535	-13.8468605783169	2.54313279926755	-5.14637811245899	-23.715321544213	-11.1700836224918	-7.32149872892347	-21.3755351064317	2.04147645990692	15.4253612390326	4.2165970763714	5.05141449607079	-0.796136879530025	4.88674867475395	13.9203922209506	22.2838841687648	19.6071072129397
-6.81984238956282	-5.9811955321584	-26.3920985000381	-1.63095429922942	4.04810181734952	-2.97125749599451	-21.7086961867704	-10.6645978454261	-7.48616455024033	-21.5402009277485	2.20997171892881	14.4220485603113	0.368012182803085	1.70831537956816	-0.125985281147479	2.87629387960631	12.4154232028687	20.9474104097047	17.0988255161364
-4.1430654337377	-4.47622651407644	-20.3683929900053	5.89006135347525	1.37132486152437	6.05855661249713	-20.7053835080491	-9.82978042572671	-8.15631614862288	-22.2103525261311	-1.79944955825131	14.0888874799725	-1.79944955825131	4.88674867475395	1.37132486152437	2.54313279926755	11.2436152651255	20.9474104097047	17.0988255161364
-3.13592331731137	-4.1430654337377	-18.6987581506066	1.87298120088502	3.37795021896697	1.03816378118563	-18.6987581506066	-8.15631614862288	-8.65797248798351	-21.8771914457923	-3.637579656672	13.9203922209506	9.90331206836042	11.5767763454643	0.701173263141825	4.2165970763714	11.5767763454643	21.2805714900435	21.2805714900435
-10.1629415060655	-6.31818605020219	-17.6916160341802	-5.31104393377585	-0.125985281147479	-0.459146361486233	-15.8534859357595	-6.81984238956282	-8.48947722896162	-21.3755351064317	-1.29779321889067	13.41873588159	-2.63426697795072	9.57015098802167	0.0348511024643301	5.38840501411458	12.7485842832074	20.614249329366	22.7893699458305
-11.5032447028305	-8.82646774700542	-19.365080311284	-13.1767089799344	-4.30773125505455	-5.14637811245899	-14.6816779980163	-5.81270027313649	-8.65797248798351	-20.873878767071	-3.97457017471579	12.9170795422293	0.53650744182498	7.22653511253527	-1.12929795986878	4.54975815671015	13.5872311406119	20.2772588113222	20.614249329366
-5.81270027313649	-10.3314367650874	-17.6916160341802	-8.82646774700542	-1.96794481727321	-6.65134713054093	-16.3551422751202	-6.98450821087968	-11.1700836224918	-21.5402009277485	-5.81270027313649	11.0751200061036	-1.79944955825131	8.39834305027848	-2.63426697795072	1.87298120088502	11.4121105241474	16.5971691767758	18.1021381948577
-10.3314367650874	-13.1767089799344	-15.3518295963989	0.368012182803085	-1.46628847791257	-4.47622651407644	-18.5302628915847	-9.15962882734416	-13.0082137209125	-21.2070398474098	-7.65465980926223	7.72819145189594	-7.82315506828412	4.2165970763714	-4.8093875944152	-0.96080270084687	8.39834305027848	13.2502406225681	12.9170795422293
-11.6717399618524	-15.6849906767376	-18.5302628915847	-9.15962882734416	-6.65134713054093	-8.48947722896162	-20.3683929900053	-11.3347494438086	-16.0219811947814	-21.8771914457923	-11.6717399618524	4.2165970763714	-5.81270027313649	-5.47953919279774	-8.48947722896162	-3.8060749156939	6.223222433814	10.4049684077211	9.40165572899976
-15.5164954177157	-19.2004144899672	-23.5506557228962	-14.5131827389944	-9.49661934538796	-14.8501732570382	-20.5368882490272	-16.1866470160983	-18.3617676325627	-21.8771914457923	-18.6987581506066	0.53650744182498	-11.0015883634699	-7.32149872892347	-12.5065573815518	-5.31104393377585	3.71494073701076	6.05855661249713	7.22653511253527
-18.1971018112459	-22.378847785153	-30.4091786526284	-25.0556247409781	-14.0115263996338	-18.6987581506066	-20.2037271686885	-20.873878767071	-20.5368882490272	-22.0418572671092	-21.0385445883879	-3.97457017471579	-14.0115263996338	-10.6645978454261	-17.8601112932021	-9.32812408636606	0.701173263141825	0.869668522163735	2.54313279926755
-21.3755351064317	-23.8838168032349	-31.2439960723278	-20.873878767071	-13.5098700602731	-20.3683929900053	-20.5368882490272	-23.715321544213	-20.7053835080491	-21.7086961867704	-21.2070398474098	-5.81270027313649	-18.028606552224	-13.8468605783169	-20.5368882490272	-13.678365319295	-1.79944955825131	-3.47291383535516	-1.46628847791257
-23.3821604638743	-27.7324016968032	-30.2406833936065	-11.0015883634699	-21.7086961867704	-26.0589374196994	-22.8805041245136	-27.9008969558251	-23.2136652048524	-22.2103525261311	-28.9042096345464	-9.32812408636606	-18.1971018112459	-19.0319192309453	-21.5402009277485	-17.0252938735027	-5.47953919279774	-7.48616455024033	-8.32481140764477
-27.7324016968032	-27.7324016968032	-33.4191166887922	-14.3485169176776	-25.0556247409781	-18.8634239719234	-25.0556247409781	-31.0793302510109	-24.3854731425956	-21.8771914457923	-30.2406833936065	-11.8364057831693	-22.378847785153	-20.0352319096666	-23.8838168032349	-17.6916160341802	-6.65134713054093	-11.0015883634699	-9.32812408636606
-29.4058659739071	-29.9075223132677	-34.9279151445792	-21.8771914457923	-24.5539684016175	-22.0418572671092	-25.220290562295	-32.5842992690929	-23.8838168032349	-21.8771914457923	-30.5776739116503	-13.678365319295	-23.3821604638743	-18.8634239719234	-25.8904421606775	-17.0252938735027	-6.65134713054093	-12.8397184618906	-7.48616455024033
-25.5572810803388	-30.7423397329671	-48.8134562630655	-30.910834991989	-25.5572810803388	-26.8937548393988	-24.3854731425956	-32.2473087510491	-23.0489993835355	-21.8771914457923	-32.2473087510491	-13.8468605783169	-27.0622500984207	-20.0352319096666	-27.3954111787594	-16.3551422751202	-5.14637811245899	-14.8501732570382	-9.66128516670481
-31.9141476707103	-26.56059375906	-38.106348439765	-25.0556247409781	-21.5402009277485	-24.2169778835737	-25.3887858213169	-33.5876119478141	-21.7086961867704	-22.2103525261311	-31.4124913313497	-11.3347494438086	-21.7086961867704	-18.3617676325627	-26.0589374196994	-16.1866470160983	-2.46960115663386	-13.678365319295	-9.82978042572671
-31.4124913313497	-24.2169778835737	-30.4091786526284	-14.3485169176776	-19.7020708293278	-19.0319192309453	-24.7186342229343	-32.5842992690929	-19.0319192309453	-21.0385445883879	-29.4058659739071	-9.49661934538796	-17.1899596948196	-16.0219811947814	-22.0418572671092	-14.5131827389944	-0.125985281147479	-13.1767089799344	-9.49661934538796
-22.7120088654917	-27.0622500984207	-37.6046921004044	-18.5302628915847	-23.2136652048524	-19.5335755703059	-27.5639064377813	-35.261076224918	-19.5335755703059	-22.378847785153	-32.415804010071	-13.8468605783169	-19.365080311284	-19.0319192309453	-25.3887858213169	-15.0148390783551	-1.12929795986878	-19.365080311284	-13.0082137209125
-23.5506557228962	-28.7357143755245	-42.2880944136721	-22.0418572671092	-27.5639064377813	-24.3854731425956	-29.0688754558633	-36.597549983978	-18.1971018112459	-21.7086961867704	-33.2544508674754	-14.8501732570382	-14.0115263996338	-19.7020708293278	-26.56059375906	-12.5065573815518	0.869668522163735	-21.3755351064317	-12.3380621225299
-26.2274326787213	-29.5705317952239	-46.8068309056229	-29.7390270542458	-29.5705317952239	-31.9141476707103	-30.5776739116503	-39.2743269398032	-18.1971018112459	-21.0385445883879	-34.9279151445792	-16.8567986144808	-24.8871294819562	-17.5269502128634	-28.5672191165026	-11.5032447028305	2.87629387960631	-24.5539684016175	-12.0049010421912
-26.56059375906	-28.5672191165026	-48.143304664683	-29.0688754558633	-26.0589374196994	-28.5672191165026	-31.5809865903716	-41.1162864759289	-16.6883033554589	-21.3755351064317	-36.597549983978	-18.028606552224	-27.3954111787594	-16.0219811947814	-29.4058659739071	-11.0015883634699	3.88343599603265	-28.2340580361639	-12.1733963012131
-24.7186342229343	-26.0589374196994	-40.6146301365682	-16.1866470160983	-29.7390270542458	-23.5506557228962	-31.5809865903716	-42.2880944136721	-16.3551422751202	-22.0418572671092	-35.261076224918	-17.5269502128634	-22.7120088654917	-18.6987581506066	-27.5639064377813	-12.5065573815518	3.04478913862822	-28.5672191165026	-14.6816779980163
-24.2169778835737	-26.56059375906	-56.0051402731365	-16.5236375341421	-31.0793302510109	-21.0385445883879	-31.7456524116884	-41.4494475562676	-15.183334337377	-21.8771914457923	-34.4224293675135	-16.6883033554589	-15.8534859357595	-9.15962882734416	-26.8937548393988	-9.99827568474861	3.04478913862822	-29.4058659739071	-13.0082137209125
-22.7120088654917	-27.5639064377813	-38.9411658594644	-22.0418572671092	-22.8805041245136	-26.2274326787213	-31.9141476707103	-39.4428221988251	-15.183334337377	-21.5402009277485	-31.9141476707103	-15.0148390783551	-16.1866470160983	-17.3584549538415	-26.3920985000381	-9.49661934538796	3.37795021896697	-28.4025532951858	-13.5098700602731
-22.378847785153	-26.8937548393988	-41.1162864759289	-27.7324016968032	-22.8805041245136	-27.0622500984207	-32.9174603494316	-37.9378531807431	-15.0148390783551	-21.2070398474098	-28.4025532951858	-13.0082137209125	-29.9075223132677	-20.5368882490272	-25.7257763393606	-9.32812408636606	3.88343599603265	-26.7290890180819	-12.5065573815518
-27.9008969558251	-27.0622500984207	-43.2914070923934	-27.2307453574426	-22.0418572671092	-23.3821604638743	-34.0892682871748	-35.5942373052567	-15.183334337377	-21.7086961867704	-23.3821604638743	-10.3314367650874	-21.8771914457923	-19.365080311284	-24.0523120622568	-8.48947722896162	4.04810181734952	-23.8838168032349	-12.8397184618906
-21.8771914457923	-27.0622500984207	-37.2677015823606	-12.6750526405737	-21.2070398474098	-22.2103525261311	-36.9345405020218	-35.5942373052567	-16.0219811947814	-22.0418572671092	-27.2307453574426	-10.833093104448	-20.7053835080491	-16.3551422751202	-23.2136652048524	-9.49661934538796	0.701173263141825	-23.3821604638743	-12.8397184618906
-27.9008969558251	-27.0622500984207	-38.9411658594644	-13.1767089799344	-21.2070398474098	-24.3854731425956	-38.7726706004425	-35.261076224918	-15.6849906767376	-20.3683929900053	-28.2340580361639	-10.1629415060655	-21.3755351064317	-17.1899596948196	-23.3821604638743	-8.82646774700542	0.368012182803085	-22.378847785153	-12.6750526405737
-28.7357143755245	-28.2340580361639	-43.793063431754	-20.3683929900053	-22.5435136064698	-25.7257763393606	-41.1162864759289	-36.7660452429999	-16.3551422751202	-21.2070398474098	-29.4058659739071	-11.1700836224918	-23.2136652048524	-20.0352319096666	-25.7257763393606	-8.65797248798351	-0.96080270084687	-24.5539684016175	-13.8468605783169
-35.7627325642786	-31.5809865903716	-52.3250506385901	-28.4025532951858	-27.3954111787594	-29.5705317952239	-44.2947197711147	-39.2743269398032	-18.3617676325627	-22.0418572671092	-33.2544508674754	-15.183334337377	-24.5539684016175	-21.2070398474098	-30.2406833936065	-10.6645978454261	-3.47291383535516	-29.4058659739071	-16.1866470160983
-32.2473087510491	-35.261076224918	-55.338818112459	-33.756107206836	-28.9042096345464	-31.7456524116884	-46.638335646601	-41.2847817349508	-20.873878767071	-21.7086961867704	-31.7456524116884	-17.3584549538415	-26.8937548393988	-25.5572810803388	-33.756107206836	-14.1800216586557	-5.31104393377585	-33.2544508674754	-21.0385445883879
-31.7456524116884	-36.2643889036393	-54.8371617730983	-22.2103525261311	-35.261076224918	-28.4025532951858	-49.4836078614481	-45.298032449836	-23.0489993835355	-21.8771914457923	-36.2643889036393	-21.3755351064317	-28.2340580361639	-24.5539684016175	-35.0925809658961	-16.8567986144808	-8.65797248798351	-36.7660452429999	-23.8838168032349
-39.9444785381857	-40.6146301365682	-56.5106260502022	-23.0489993835355	-38.2710142610819	-37.6046921004044	-50.3184252811475	-47.8101435843442	-27.0622500984207	-21.7086961867704	-44.2947197711147	-26.3920985000381	-31.9141476707103	-26.0589374196994	-37.6046921004044	-19.8667366506447	-11.6717399618524	-40.7831253955901	-26.56059375906
-36.0958936446174	-40.1129737972076	-56.3421307911803	-27.2307453574426	-37.0992063233387	-32.415804010071	-47.4731530663005	-48.143304664683	-27.3954111787594	-21.2070398474098	-45.1333666285191	-27.0622500984207	-31.9141476707103	-29.4058659739071	-38.106348439765	-19.365080311284	-12.0049010421912	-41.2847817349508	-26.7290890180819
-37.4361968413825	-38.2710142610819	-57.1769482108797	-34.0892682871748	-39.1096611184863	-34.5909246265354	-43.2914070923934	-47.8101435843442	-26.56059375906	-22.7120088654917	-45.9681840482185	-26.2274326787213	-31.4124913313497	-26.8937548393988	-39.4428221988251	-18.8634239719234	-12.0049010421912	-40.947791216907	-25.5572810803388
-33.4191166887922	-34.9279151445792	-51.1532427008469	-34.9279151445792	-35.0925809658961	-33.2544508674754	-35.5942373052567	-43.4599023514153	-22.8805041245136	-21.2070398474098	-43.2914070923934	-21.8771914457923	-24.8871294819562	-24.3854731425956	-35.7627325642786	-16.0219811947814	-8.32481140764477	-37.2677015823606	-23.5506557228962
-22.7120088654917	-29.2373707148852	-37.0992063233387	-13.0082137209125	-29.4058659739071	-17.5269502128634	-28.065562777142	-38.106348439765	-17.6916160341802	-21.5402009277485	-38.6080047791257	-17.1899596948196	-18.028606552224	-18.3617676325627	-28.9042096345464	-11.0015883634699	-4.97788285343709	-31.5809865903716	-19.365080311284
