64 10
"Fp2_F4"	"F4_C4"	"C4_P4"	"P4_O2"	"Fp1_F3"	"F3_C3"	"C3_P3"	"P3_O1"	"Fp2_F8"	"F8_T4"	"T4_T6"	"T6_O2"	"Fp1_F7"	"F7_T3"	"T3_T5"	"T5_O1"	"Fz_Cz"	"Cz_Pz"
0.000126975338572866	0.0135766118066423	0.00535591845891448	-0.000242351928982476	0.0019035994186174	0.000477246102146721	0.00274110922970472	0.0118745677840448	0.00450529739291428	0.00121838903194149	0.00653467236118832	0.00655879488910305	0.00753944502743931	0.00111637564269529	-0.000619512373877029	0.0089602142382561	-0.016900439189388	0.0114036255715865
-0.0356058328335733	-0.788575093496096	-0.353528713528964	0.026875728165209	-0.0645723564044003	-0.0811772988322762	-0.169137940489042	-0.731492425654064	-0.307626369189771	-0.205145366073608	-0.299756534470916	-0.338305641959129	-0.548742930283974	-0.00113319385938471	-0.0997765580780205	-0.396727339158404	1.09154495606144	-0.830487478412194
-1.19972672312851	-2.88036501242022	-2.08947696751385	0.272945630215123	-0.0109505119832143	-0.806648692734524	-1.01397817253707	-3.61108438512395	-2.18732579090971	-2.6943972829867	-0.113215460668954	-0.901684538282105	-3.96113211984352	0.851174425767367	-2.23989121443593	-0.0928128538666759	6.34055244811081	-5.92180757189687
-1.26757015093401	-3.18196003738551	-2.19792743675118	0.249924015342751	-0.145837756832343	-0.792742959036445	-1.12402840457843	-3.56276767270051	-2.32509642796136	-2.75555625000904	-0.267459933689684	-1.04942099806787	-3.95797264427182	0.793573005929101	-2.20918930826156	-0.251787846543456	6.78534960034083	-6.22990226604144
-1.13001650912439	-3.44430422372787	-2.30653999338923	0.189106006462347	-0.516855347981002	-0.702376507060506	-1.07952416235356	-3.53781876414621	-2.37687074544796	-2.66221567178859	-0.365070531609904	-1.2875977709327	-4.09964978308341	0.798201305791096	-2.11687842856574	-0.418247875683213	6.9218580400549	-6.21537450030226
-1.15245565684198	-3.69005643761293	-2.35259783142766	0.126369630000982	-0.900606184431899	-0.644289780240475	-1.04888860813046	-3.37563611359998	-2.51368748866344	-2.48566678772906	-0.609375140362173	-1.46001087912692	-4.01010655008982	0.522277125757311	-1.86950541399908	-0.612085848071233	6.9032942123259	-6.085854968135
-1.07272679176901	-3.91621385832566	-2.53467406320881	0.182383936870374	-1.05840509006575	-0.600150236633389	-1.00487597427694	-3.29110560116009	-2.49389293686267	-2.38048075006891	-0.845650297629538	-1.62120679187199	-3.84078371388726	0.395424192725381	-1.70161208250697	-0.807565298467319	7.04495651055561	-6.03135432467718
-0.994263647939054	-4.29956622754672	-2.64470435607095	0.117561805672467	-1.53081658086073	-0.516836225174764	-1.02090057777799	-3.09838215223034	-2.66748522411576	-2.31749880597116	-0.980454367776717	-1.85553402802063	-3.91031193661879	0.209142193898885	-1.45691351704292	-1.008852276281	7.09435199443567	-5.96999886651988
-0.668822817833222	-4.83564000810739	-2.69589415208553	0.0233073850253804	-1.64631113569057	-0.66575114116863	-0.944440489717175	-2.89723447237549	-2.65456226367849	-2.1453730282542	-1.36129101798557	-2.01582328308251	-3.76432883895611	-0.0308847935741401	-1.27559132960218	-1.08293227681943	7.03169952503828	-5.86977771577237
-1.53933361417523	-2.73737539856688	-3.16508929833519	-0.134172681807672	-0.892340645201363	1.61133011708577	-2.25482897437544	-2.97717471689559	-2.50872070274751	-2.52532734027073	-1.05885656895066	-1.48306638091607	-2.64714675026772	0.324014444353913	-1.04853812895173	-1.14134378452108	13.3137312677218	-10.5264905156785
2.49919349326938	5.56161175415905	-6.3524655959882	-4.07448369995415	9.88233622850258	8.45769866658795	-7.51254769018299	-6.16100026840001	0.360593893986767	0.632375510936157	-4.17170905493052	0.812595601493676	3.61640483623324	2.93907512439685	-0.7337384823085	-1.15525454181405	43.805749589536	-33.5117069616868
1.26444770658917	6.95917663750409	-2.41629428540343	-5.87381508978623	10.2344445917344	3.75593309335079	-7.2683475835557	-4.00047798282968	1.27667700217039	-0.205656757874923	0.960989939225353	-2.09849521461722	6.9403353650468	-0.592380249726808	-3.37589804380866	-0.250504952811553	28.8349087581163	-21.4666220518493
1.1797619391579	4.96600053620114	-2.23926541991973	-2.65811740563698	9.27098271783265	-3.55232006115656	-5.26172637813533	-1.46783112391471	0.753535512522969	0.240964191912064	2.31935113447309	-2.0654711891058	5.8317372661778	-3.76004485032083	-3.92240626554212	0.839819004311195	9.16321838564246	-8.46257573272191
2.15087803824701	4.74410135975111	-5.35676817066064	-1.91819827872895	5.82943492711287	-2.58268408549725	-3.20060910800216	2.45586814320752	3.39965414760398	-4.04880629388032	-1.07465029324118	1.34381538812606	8.82295507582681	-1.32257882521118	-6.56816332470474	1.56979695091011	-1.96860651338552	-3.32204881228562
3.38705574642302	4.93811340425676	-6.54806537210603	-2.52291938013022	-1.03657606488688	0.58706498136927	0.483450052486557	4.91920745716135	1.08379029090401	-2.63231010259221	-0.807668232857177	1.61037244298891	7.65046831510703	1.73799048614711	-6.78889494658118	2.35358257145734	-12.3546625625394	2.3994373183863
3.88194006987742	5.87678648031068	-5.99515644634544	-3.62216376142863	-6.90025447252443	0.158907778739914	4.50461654471448	6.34235432812959	-2.42684652100898	1.34607684806454	-1.88860815707076	3.11078417242923	2.46406478101187	3.1481901652534	-4.64988355845938	3.14325279125367	-17.7712091075882	7.01681644056369
9.01508421604176	5.71496143824241	-10.096089783281	-2.98710410945312	-5.50068286660773	-2.15432002172748	6.55394852907642	7.03898471366787	0.418642753986575	0.676099744975794	-0.261286558082595	0.813395820670245	3.27417392292474	3.70438198805512	-3.95573831691103	2.91511276034026	-18.0945225615868	6.42957514379947
10.279318080639	5.90058559837841	-11.8607426051539	-2.00871981309985	-1.18769789645575	-6.81586356024273	9.00131583897951	8.55083291488784	0.13139311620257	-2.24847739043492	3.21119281401166	1.21633272098438	1.51297908083305	4.40465751402706	-0.898060090151265	4.52901079246003	-19.7197425573407	7.57719193879232
5.95714374065023	1.62759422501703	-5.78348849856627	-1.05647967445744	-8.84151747206993	-4.90647282148492	9.88674106089626	9.54810795516778	-5.22386395564379	0.138869906244313	-0.099844179977655	5.92960802202068	-0.840373067473745	4.20617026210376	-1.4392434968434	3.76030502472258	-23.6788685523229	11.9199255383723
3.89538515817561	-7.56833032795266	8.24041991474515	4.75932722300416	-7.33372200410308	-5.83823587991695	11.2639466848139	13.5372012186551	-1.43447324391604	-1.97715501675665	5.95992620307306	6.77850402557189	-5.69273948464496	7.36113447268536	1.36341422461488	8.59738080679373	-24.4481207565175	18.6820905692505
5.28898674693486	-9.03128162842479	13.3022551815192	5.41919245406014	-1.57364595805855	-5.83153034756361	10.735955661405	14.8318588339854	0.409351430327085	-3.51320789742467	9.08880420559022	8.99420501559673	-3.53792168493839	7.19610977614985	3.7046902245513	10.7997598740054	-23.4383460064242	22.8504531083561
8.77473122903663	-9.83707570781958	15.3802328913233	3.34602590297207	-7.42551310683629	-1.05129664218213	8.24303630779676	15.6713220774481	0.0945470364999537	2.4630946100325	7.0397638004652	8.06650886851482	-3.86038889023907	4.82271055280378	2.79181060699139	11.6834163666703	-22.3989908133597	22.8996633338784
-2.30011728330392	-2.69214126259014	21.8437403211279	4.84864507999797	-4.20006306226055	1.53868714609274	7.97551656714834	14.6112881272626	3.33989038526072	1.44417339648038	11.5690786301572	5.34698444333352	2.69776371658685	3.91847663797759	2.23709000835249	11.0720984153263	-19.9657145345534	23.947948669537
-4.21367210816589	-4.79566609184233	19.2713157829722	7.54276583280163	0.0631354582471495	3.95426501443275	4.82509406630076	9.37856618288546	2.13721380145691	2.65824421465227	8.38171844859156	4.62756695106483	6.48081737966401	5.32843660791106	-2.07326012047362	8.48506685476467	-15.2505108621078	20.3505493519023
-3.35441506908607	-6.62639020280261	11.3147871003625	9.98002033683025	0.160018800746286	3.74142708677879	0.878050938909089	4.95271539653106	6.49842952178695	-5.91532107828241	5.76860128969285	4.96229243210671	6.35295918287835	3.31232079585143	-5.34967025243504	5.41660249667047	-11.138469976259	15.7659203684856
-3.37194610105278	-4.54262118992936	2.4022452592133	10.353035854007	3.35579095396879	1.07585459612365	-2.53213720187878	1.56323649175333	2.56770019341803	-2.82440097525776	-1.35250367936321	6.44991828344113	9.5932260200873	-1.71464472986936	-6.50551006807948	2.08967361782854	-6.79910679242204	9.81183212348477
-3.72745155360238	-2.50512762847471	-3.39229794789133	7.14834711485152	6.58506655627205	-0.866076596411399	-5.03738652468647	-0.352374726618673	-0.273881518617806	-2.08661018688453	-1.11409814873428	0.99805983911971	14.5548910903359	-10.3651063116235	-5.04807063817709	1.18751456802014	0.61932445004869	-1.50843655028748
-2.44885738590201	1.33672101082221	-3.49096451435397	2.52328067592843	2.08445766428037	3.03641272305852	-4.13422835167064	-1.41023292786801	2.49640037899954	-3.36741016347099	-0.17436891715294	-1.03444151188096	6.44510194273236	-11.3075012934486	2.60280084284829	1.83600761566816	11.4862926452946	-7.84082440392728
0.456582783171045	5.09846066259498	1.86532876751603	-1.77335582667036	-1.1951075370585	6.31502619010553	-0.612329396944109	-2.62782841557343	5.26529856059577	1.52845494646921	-0.988977112714261	-0.157760007739027	-6.96430779311384	0.0906405073028012	7.38200285737961	1.37142526896092	11.4302020130088	-1.73561089977159
-5.45682857866572	9.64181431323789	2.54859124202833	-1.16597634565661	-8.92408944124418	10.7506516448504	1.18157070206851	-4.42772809960984	6.6441346746454	-1.44439118270716	4.41730182727459	-4.04944468826894	-14.2028368019665	3.15631608059629	10.1753566321759	-0.548431104740827	2.92043929009081	7.40568089228954
-6.77800360706183	3.35877615428226	1.61414224567474	-0.962615661456068	-0.59789175093592	2.27512884509243	0.951723528461284	-4.05144417370639	1.91715696466418	0.690178302825164	-2.25164171228217	-3.12339442376808	-12.592721186455	-0.268240058648441	13.275175418867	-1.8366977248521	-8.24350279233411	14.0787182075439
-5.03471516260844	-1.05764628008439	1.09359081694987	1.9017352491	2.49810954049553	-5.8200917850709	-0.539122974070752	-4.36378084893061	2.30376561418795	1.42057157385759	-1.346224808391	-5.4751477562975	-10.8645230105834	-10.4809434998905	15.6314051419284	-2.51082469903126	-15.8095640016787	14.4725543948818
-3.77451617745674	-5.66670667958763	1.08392538424942	2.25480574872475	-0.299966122238271	-8.7895139845423	-1.08104726113775	-4.71471271941329	1.65459930528681	0.931173621708854	-2.01618929942886	-6.67207535163701	-13.183409247493	-13.1933779952389	14.6549564096714	-3.16340925427114	-15.6891173448601	9.91555047394313
0.942259278070495	-10.7475457146403	1.3072009079679	1.30120595541676	2.04206028539824	-15.4130825877376	2.16305355914283	-5.60964615344327	-1.69963028469329	1.57209774726179	-1.90633888803338	-5.16300814772028	-8.65163815029164	-13.7361972636387	8.87574764279401	-3.30552712550346	-18.2473248633187	10.9107604014861
-2.94734914514655	-8.14714658737362	0.00931946494806191	0.614837915752867	2.76478704773477	-16.1277288420362	1.96908554931069	-5.98962628330029	-1.51877465133278	-1.20157991468997	-4.18726160987483	-3.56272217592166	-6.53704940468896	-10.2009688796282	3.99126011561187	-4.63672435958574	-16.7777995974965	8.30825533361688
0.39759685400633	-4.75735175726809	-2.34737800396587	0.543181909531687	1.9912038111488	-7.75965670824939	-0.065988314260625	-8.57804258079766	0.3958443770477	-1.75897919527138	0.0706899717987226	-4.87150615127099	-4.31127245731891	-4.27765116600878	1.10467718119026	-6.92823735002144	-2.19264349578019	0.681574384484956
-4.0598150243969	3.99995218067598	-2.56707570738009	-2.44731771220462	5.86445780735756	0.172704538691825	-4.23341370283143	-10.7268936706679	-2.48081700487401	2.32279379801122	-1.18150507072519	-3.73472798571766	0.493237078288249	0.0567691310696681	-0.998706870637907	-8.47444436616997	24.4419435501106	-20.7257279168634
-4.61809212843744	6.60630817500844	-2.70501170112315	-6.13193804536781	2.66970100405178	6.75101879845362	-9.44894493957461	-10.6514346082196	-1.92576054691901	2.15160069366618	-5.97367203595061	-1.10090181071652	-2.58427389343455	3.57770477081252	-3.16684920087042	-8.50624142179636	38.8811495797002	-38.9082976609678
-4.24676901124114	8.86303949649248	-1.39934375454627	-8.88243830897624	6.11771458804536	5.0061434110529	-10.2967307368658	-11.0169051876499	-3.43315162113151	2.44949868662105	2.26814988205832	-6.95000852581904	2.01462561929955	0.310097776003204	-3.70934685775165	-8.8051544629686	42.4538403305708	-46.680911979188
-6.03831173469418	13.024424125089	-2.09859059472787	-13.5168619577755	3.94308942124831	4.48500188474608	-7.78717795110068	-10.6865645984959	-2.02751864772571	2.39878168990209	-0.600685705191715	-8.39991749909319	-0.972194538481467	3.34914266247178	-3.24999174740394	-9.17260762018857	47.3875505116748	-50.8594129423083
-1.99809292098758	13.7634018143877	-3.3717044524508	-15.102521364263	-3.80806661058732	3.37742809028558	-2.66133219827014	-8.25382894944165	-1.72225799961745	5.43195011355685	-3.08592443428268	-7.33268460297035	-3.91605830801856	1.08225744567497	-1.03093994691363	-7.48105885875631	40.3029479952994	-41.4722279964905
-3.27467264442762	16.9241778692289	-3.47092523254958	-14.9340591723193	-4.3179771930422	-0.500570561637939	-0.651924474664266	-4.27294542535364	-3.57871942701728	8.10385462122787	-2.10972213873709	-7.17089223554109	-0.763092418888835	-0.397938128024759	-3.43360087155782	-5.14878623622663	24.3192317465294	-25.1115204864288
-1.75670153340073	12.8188960655932	-4.150025536109	-10.9569729660448	-1.14521765518496	-3.60949723349566	-0.854443210240625	-0.946945780233818	-2.74543086846282	5.69693946012643	-0.995554485667242	-6.00075807595766	1.34490613130875	-3.20039096914788	-1.69657533926973	-3.0040437020462	16.2726284149608	-18.3710366469204
-1.40097832047756	5.52804096050054	-5.44404221528623	-9.49417039827724	-4.54264964746317	-1.34818556807662	-4.97155745824684	-2.90513339818402	-4.30942965614903	0.869307435884298	-3.89419686178354	-3.47683089149222	3.52956680334114	-4.20193438154411	-7.53205783468774	-5.56310065907995	9.61348903013259	-19.521927867469
1.17689714843537	2.42927358587015	-3.30067086360729	-10.3502725450387	-4.29833292108021	-1.11178241478265	-5.10420769363827	-4.60606419151668	-2.07845035979547	2.1892047356162	-4.2179976810349	-5.93752936912635	-1.36557048850119	1.67011313441052	-10.4800403734373	-4.94488949348989	2.10346155282247	-14.1150634394801
1.45817322827705	2.01075784715918	0.85162805058915	-11.1281818762747	-0.271647105873841	1.82708293138691	-3.81069991596964	-3.89128430487991	-2.08458144515237	3.88745922867694	-3.48210899289322	-5.12839154088067	2.04167969505838	-0.62935079573023	-5.44425279612062	-2.11462449854402	-3.44341870635123	-3.05160978645907
0.630784906265357	2.42693072900804	0.802557533446959	-8.21188024354402	3.04236129530908	4.15231505878088	-0.500467494558979	-3.87085528469684	-2.07113867192177	1.930722879825	-3.70711531527004	-0.504075967456851	1.83694947997931	3.98362373913662	-2.59314694479834	-0.404072699483447	-4.3197469248486	1.23373158680613
-1.60157841547034	2.34920152764099	-2.99343987885085	-1.81924953267528	-2.42298141223658	8.78688460209489	-0.148200105751783	-2.84222444296816	-2.08412770148404	-0.788466043775703	-1.1304715369652	-0.0620010171305339	-0.449182843511929	4.12467042056578	-2.6279531359733	2.32594420005782	-4.80848588249011	-2.72016414173232
0.0299848309410695	0.20860047876913	-5.69470139724329	2.91781041052768	6.45321053309577	2.780919104205	-5.11384264883162	1.78494523818085	-4.0069133477428	0.239221685888396	-1.23789924865612	2.46728523350511	4.10321324667289	0.122119004633856	-3.2444346610187	4.92433463636196	-5.61622486456507	-7.28148154855655
1.07543803784938	-1.16479243918619	-5.72329709684587	5.54796611302509	8.02443214680377	2.95206807323043	-8.17880805602246	5.19737518340886	-1.91598887786258	-2.54254554039781	-3.83556981972681	8.0294188528296	6.01489219324178	-0.514570881833515	-5.24001218578115	7.73475822179347	-6.84522396397525	-0.86995710920711
-1.03727727957466	-3.70291608835745	-1.11737711054689	10.0586042634662	2.26003680964542	4.5021136307324	-9.44079523742417	6.95477055751076	-2.68154311245895	-2.68872526508818	-3.46032816463639	13.0316303271707	2.75310944174418	-0.973940093151676	-5.53399396037452	8.03095037224642	-12.7609547362921	17.8949138479613
-0.962590514141258	-5.48682176068958	3.67850103097129	10.0316469079813	2.48858301013474	5.82494829241411	-8.36871898444259	6.03637514719924	-2.1290564462813	-4.05255880829815	3.33579707290238	10.1065538457989	7.98937296816532	-2.57689761739555	-5.97635521861181	6.54506733314753	-18.8329262357512	28.8952316619948
2.01090870755847	-6.46279165554341	2.81634370665139	9.41055689011183	3.08736570842585	1.45950184231714	-5.06391712472219	6.36547870834092	0.357636970019342	-2.01114714048493	2.52315099744595	6.90537682179793	10.2984044904842	-3.07789188359479	-8.619903760765	7.24782028823735	-17.6828071253697	24.063261227196
-2.15258716479031	0.225099712947502	0.423622920852246	9.37334560610652	-1.34392255917017	1.15185808331502	-4.08567666329018	6.58020581190954	2.07131904560291	-2.63537564488471	4.22663459394325	4.20690308045452	4.5172708707172	0.366718142889724	-10.3803557025592	7.7988313617165	-9.2378703493948	12.7992926012883
2.52156789597569	5.27047755648956	-0.41364014745716	8.64941252718583	-1.00445338794298	4.00317025585058	-2.22310394425856	8.75208067019861	3.10692162022227	2.16685362856305	5.38889238804002	5.36515019536859	4.74546080039622	-0.0023095638183932	-5.79790720830326	10.5824495655731	1.00272460724941	10.576290617165
1.40434755843528	6.76159262683857	-1.59301447524387	9.77000273991506	1.32807962815928	6.27785819973911	-0.900362997853223	10.0760348421214	3.81102915180886	4.64456565194035	0.510172253619698	7.37716139257613	4.97264087258769	4.91948534557314	-4.74742451314144	11.6369079671472	5.16013012141015	12.5359971056881
2.95622689918944	2.83919405757826	-2.17955663977988	15.3909382744718	-7.6724591174131	18.4132407424138	-1.12076091990698	10.0662956572718	9.14939231959592	-1.7221369236707	4.30953362154324	7.27001357399119	1.69661846451804	12.8994018363525	-3.02783934708529	8.11813540858028	2.3984507801315	18.8228691901417
-1.22820425154046	-1.70097403473737	-4.66973048936672	19.6585783021292	-9.94556959805027	14.4373365342375	-0.0286287949607562	12.1366528285312	3.73944993666685	-0.441788244580867	-0.407846550050703	9.16985438444933	2.40995888993183	10.7807892437601	-2.93146864997544	6.34051148604123	-7.55074821667962	21.1741712407966
2.60603841117664	-9.33305238595762	-2.80970472638167	16.1483703256541	-5.84641647593602	8.53449342543524	-0.179839738179965	10.5804578764171	5.0515005945571	-1.50558478207935	-2.41901157342781	5.48474738544154	5.05308614670669	6.1159213581136	-0.997862182898572	2.91754976581466	-16.990530611878	21.8835662655356
0.990203154363954	-10.991229503863	0.250384619947859	13.1132738154556	-3.65130113451453	7.58149307617502	-3.09508044936021	8.07789402294972	2.82860986446684	-0.226995472481704	-3.90244281972357	4.66346051364282	4.83965565333402	8.74310872379578	-5.46443730721802	0.794678445338221	-19.6535631546097	21.7417659249992
-2.62703943915703	-10.09657028065	-1.11526658016222	12.6981460654912	-3.92599050255197	5.688551671357	-4.63259339018591	5.52414039006586	-0.315837330851508	-4.61804308656572	-3.28329188164361	7.07644206458281	0.316230091450109	6.3272984197338	-5.07804311745464	1.08862277495571	-16.7965950935164	18.5256664498365
0.433321989236738	-11.108480551133	0.523152487490027	9.74581074547143	-1.16780039932909	1.31680282658042	3.39535399622026	1.38249150123337	3.90799763043119	-4.97114601852631	-0.358136306740029	1.01508936590037	1.9476336973569	3.33315742660933	0.237239325406385	-0.591182524667651	-18.4085109865823	24.9195074702654
0.849004874336124	-9.593903766103	3.44347846174576	4.43981815233853	-7.17141534970942	3.43348792894823	14.3404529936022	-3.23563610016257	3.86946387958914	-2.37729942897577	-2.15240030544951	-0.201366422846455	-1.12728698479189	3.81531196220478	7.08416580857235	-2.40530131330681	-14.7255465678727	28.9812091847027
0.608881070722042	-5.73543624590517	4.39699422936458	1.46802803010259	-7.09892999475706	-0.710068887198972	20.287466008577	-4.89301658411264	-1.03040356296535	5.04425645707438	-3.09208154302675	-0.183304266798238	-6.37689046388398	5.18764267961758	12.3566583454696	-3.58196001869488	-10.6445117163882	27.9610592549079
0.745405580911848	-2.14234521356826	5.5385922555753	-3.49000159544104	2.74008447406681	-10.1035774969815	20.9961867472525	-5.54913573589381	-0.849326862089258	4.92886743394394	-4.27611112475658	0.848221580379745	-4.99881565895907	1.89364483120199	14.8062916442295	-3.61756282802851	-6.03335988444875	24.5669546304957
2.60413199779672	2.39563295097135	5.60808029889319	-6.84718673686785	11.1053598051632	-13.1388217715699	10.6117745634004	-5.14179125705341	2.62398584159127	-1.23278064791208	2.60084971904064	-0.231396401926412	-2.98596386773161	0.539461746370812	9.42090834354614	-3.53788488224508	2.80115049762441	6.42089904664113
4.88282123237646	-1.12398652394486	9.83605040940039	-6.96047105123838	11.4208054813058	-8.87449679505042	3.69524543261175	-6.83798196814747	3.0731055010049	-2.03118219707229	12.3916597403201	-6.7991689776591	-3.68042509406499	1.77701714392421	7.22636959279173	-5.91938949193128	10.4316087018509	-9.92915935008973
6.97884354591002	-6.82326946823708	6.00215045678528	-2.24889944873476	20.6215606661929	-12.0888018488825	2.48637493246372	-7.72735423745175	0.451398652789308	1.17286402092806	6.9611769833941	-4.67661457138801	-1.37398826702723	5.12382310148367	6.72013255685243	-7.17818787898656	12.1230822138229	-16.7945024191716
5.02643393430037	-7.30957394288353	-2.84474769554527	-0.34172034693264	23.4421629832798	-17.3632797463302	0.796361027054427	-8.15253938370311	-2.83759558319559	-0.573707005119218	-3.28770071406477	1.22939525131851	-2.48183734727505	5.0630240118912	4.5686881926156	-8.42716997693086	14.005552510948	-24.0623013006556
5.50492886576643	-3.36141770853884	-3.433225896546	-2.40688635042828	17.4800682189004	-20.4811343275738	4.46412175480522	-6.44481816287415	-0.0646907298204589	-2.40235307367011	-4.50975659094108	3.28019930468496	-4.18055636473016	-1.36400394749653	7.76702949290009	-7.20423169741578	13.6558734160512	-21.8323544757063
5.33689077979892	-4.42033737341104	-2.5259384156351	-4.83276193187294	8.08186600331357	-21.4275417118118	10.0770822503211	-5.34498179052564	-0.175870826909012	-6.98216982693522	-2.90876684829119	3.62466056101526	0.216796486456428	-5.89960681898966	4.32636827799154	-7.25713319416107	14.7104909749926	-14.0517875328599
4.36158832381924	-4.51262241693528	-0.377730519709656	-5.33088534323619	0.796813649882417	-19.2884150594397	14.2875121201075	-5.03217398342498	-0.0446541283437147	-6.68595863084959	1.78008433350398	-0.909121530372561	4.64361881315863	-8.12388457906446	3.19017825374262	-8.94617576071158	11.2183359719746	-7.1392277219452
6.08102079414252	-4.26516723897361	0.479817357883498	-6.58439529922033	-4.98792283098766	-14.6092400059567	15.4863035282661	-4.7085286743787	-3.1534632002946	-0.839336966507399	2.48175171895166	-2.77767593831758	1.64971972011326	-5.8528032152625	5.77538036034164	-10.3916848482493	5.26640747740737	-5.00179944377026
4.58936322918345	-3.83192607488707	2.82000707508799	-7.74344625400238	-7.76884031714785	-9.25241979731793	15.3709838204539	-5.5564254100829	-1.83790123662215	-4.68482741151757	5.27537771939948	-2.91865109587778	-0.282862132629022	-3.92801286458579	5.98756840504813	-8.98339511192806	-0.251843658923706	-0.276889662398547
5.1617015578639	-1.74181173621387	1.81383967111018	-8.99778164603188	-7.91768303666488	-2.92111829204643	13.9080886461073	-7.0605195739366	-2.60795612067305	-2.02976103407894	3.1481332820306	-2.27446828055029	-3.08031233685676	2.55252649025892	5.31717302059167	-8.78061943053446	-0.495281723438075	2.29097601890191
5.15934297733279	0.287034522239001	-1.1286299830696	-8.8809203385419	-6.25549420542301	-2.29012167367017	8.44662297481825	-5.64340767429747	0.929943536961944	-4.30534579361639	2.85803957713636	-4.04581014252161	-9.69414369680368	2.79039796120244	10.1391847306479	-8.97783957361906	-2.14596901916345	-1.4359104158568
4.18190782869593	-0.140297454128258	-1.99294720949594	-8.17815923730757	-4.49579321219206	2.39660812320401	-2.38568303816638	-3.08835073903955	-2.21045606056308	-1.69335853968182	2.1087416512799	-4.33442312327085	-8.78818873902538	-4.29699678681327	12.7386928826771	-7.22672622303245	-6.81636375040009	-8.7420105573157
2.91756910286482	-3.8205276402328	-1.07139530777562	-8.9086285367412	0.550363456736793	1.60972664716307	-10.972938967479	-3.88434371154413	-4.83771627896367	1.47972547778411	-0.255009926589437	-7.2699816541158	-7.38108148992198	-6.36533743757172	8.84852889522687	-7.79930254285639	-11.4288804071023	-13.5337370650524
6.02153629792561	-6.16966444817175	0.236955218499133	-9.80759581674462	0.0540506665488665	-4.75642435978902	-4.00521031669687	-6.04377545854447	-1.0484329808769	1.15542503606979	-1.43533241946032	-8.3904283842242	-8.11387927958214	-7.16838631269057	8.36579995645146	-7.83489383266025	-11.9292812780761	-14.7464830516633
6.13445791905044	-6.95652064575207	-1.08366163175623	-9.09329026168159	3.67889657474127	-13.6308956002526	4.1906926745506	-7.32758777978968	0.344220948804558	-1.70940396683666	-2.05504388987234	-7.57878771223501	-6.01094271573541	-6.52925173152923	6.0123007134311	-6.56100039691691	-9.72352455204721	-15.2563630077601
0.382436478067575	3.80625703439552	-3.3424758438239	-10.169707047983	9.33235960987913	-12.6515370170436	-2.10466122554319	-7.52529268401776	-1.02890955526218	0.389520553469753	1.07841251558753	-9.76251289313888	-3.10544732610106	-3.88924002796095	0.891502135305608	-6.84594609796904	-2.96476556442691	-15.9938529681707
-1.09647440026835	9.55554987112632	-3.95307522418154	-11.9202320794947	-1.30964310532392	-1.93441685523397	-3.64008310231976	-6.39308272623539	-1.33073623857272	3.10771729192677	-0.374547693521301	-8.81666519265106	-1.03487222956661	-3.93232078770811	-1.03175187103294	-7.27828090080537	8.37312230112152	-15.8423982844464
-1.32506021395586	8.77873123249254	-5.28154969860129	-12.8056110339029	-13.2860536298404	3.93114769011298	2.24312260124637	-4.98383746500886	-1.30828297460804	3.75321950902639	-6.40377503135056	-6.67465121703527	1.24327943890885	-3.54711681700803	-2.64664722110064	-7.14513620429008	13.2309216599274	-14.3093147234862
-3.29220875544315	7.82112155580696	-2.47527533202868	-9.06128077651116	-13.793297189755	7.64229681621812	4.042980064818	-3.0100046748897	-0.316102149940203	2.23486650310154	-0.408075161929772	-8.51833249940759	2.7709638808907	0.686860118721953	-3.38285681595108	-5.19299216727018	9.96373715563857	-4.70217720221858
-5.74726731667971	6.44570885561778	2.22451224867235	-5.51517337628441	-13.5718495762829	9.5480621785204	1.1156914830152	1.65105779720868	-0.840630405784617	5.06195358875383	-0.564830681569129	-6.24871209007407	4.14129487661877	0.0398814831260257	-4.46677777996084	-0.971436697322526	6.3489041492945	3.23465458912925
-2.2191568259617	0.0581944440965323	3.44321979432182	0.0640768390927171	-10.8655508417594	11.1808959502739	-2.3447101857171	7.52090625033454	0.297422544907731	2.24502533609171	1.56792063656725	-2.76403426601732	4.73837124438186	1.57460337808299	-5.26885569949152	4.44742225015866	3.14105189463386	-2.28965923717245
-1.92134583834141	-4.39445809501235	3.54684589424895	5.60938468002801	-0.184161204595013	9.89959640262716	-6.59261634748141	16.1126802831214	3.03079475994645	0.663714982358908	-2.52228910509281	1.66820600371064	12.7721919781913	-0.655586348697838	-3.98133626390633	11.100229768085	-1.74795045947433	-7.07609420242657
-3.09064247967017	-3.58940545018164	2.60910403226995	7.15787123781977	-5.56790818923597	11.8058125931683	-6.70535893892923	17.280153156614	1.72875492291212	3.00944768038315	-1.37473296932356	-0.276542293733794	6.89877576668809	-2.36097368960589	-1.6994119097016	13.9743084542365	-4.91418531407585	-7.38233342540007
-5.51879363119486	-2.33575256909741	1.35498530791286	8.54857504339894	-6.39121070027789	6.49832585103226	-4.17448323597218	15.4839949183701	0.814387155790238	2.02976285430437	-0.276913840141017	-0.518222018934061	2.58761066903467	-2.99894218186985	-2.80289936878088	14.6308577147683	-14.9358730083838	-1.71604281215269
-7.1687740218029	-1.14046589842345	1.19766897237629	10.057095192155	-2.74979444388013	5.51844870956326	-3.39008288100218	18.266289410367	-1.02285217102049	1.52376986593991	-0.267074652370283	2.71168120175578	8.84131676649786	-2.82425260120134	-3.99483565293649	15.622632282688	-18.9785347031025	6.50664462084074
-8.94100142889938	3.36757783530489	0.906418575475674	9.15639685831587	-13.0648615941345	19.7165209550717	-4.8429008025404	17.3668487849679	-4.64271366392561	3.79711995831556	1.15115515657291	4.18383038923418	10.7231237032161	1.52355888172597	-7.89499505996152	14.8239198183841	7.76243257133268	-6.3558216852035
-7.97623155413245	4.80802304200714	1.04973568154117	7.75696749750153	-19.9965710004482	34.621176867228	-9.31581134830632	12.049167831328	-0.0299100754587229	0.926103004077621	-0.0536903210998254	4.79599205939832	3.78687237217147	7.42642247801901	-7.46308727516422	13.6077547747752	31.7842150707766	-25.2790299235171
-10.2636611741445	8.95720608187899	4.35132143767672	6.93414826708208	-12.4509385155339	38.3259257095824	-13.7860879239598	9.00824516906012	-1.69456576368685	3.48216101976773	5.23729481167031	2.95412454474209	3.10890186341147	7.59151551008392	-3.64304520692737	14.0397722725808	40.5351668756827	-24.7103548331237
-12.0038162063778	15.9991651008889	2.3393063065211	3.76904372447257	-6.34705008060133	37.0736776882717	-22.0591294556006	6.52754861971011	-1.694184111639	2.48602407980169	6.0915516366116	3.22030732073046	5.34556107943801	1.76787390089687	-5.73572942295273	13.8173412143977	49.8144782135346	-29.1590671454007
-7.94130137890463	18.451794092555	-0.940253277100567	1.4672319509679	-6.48883900645693	38.7370890926183	-27.9585783609497	6.04836439597237	0.788466544259805	4.53257427658871	2.38204273946711	3.33438782720207	1.58483735266079	-0.979643868189349	-6.87912905959384	16.6119716963064	44.1449620234299	-22.5724591193048
-5.1168511863381	18.0763848368731	-3.81583763203563	1.11219625156141	2.4837355137143	35.2466451550911	-33.1245876307515	5.01646689118377	-0.300263601445536	5.72029451270866	2.3727697753019	2.46309158349571	3.78227240156362	-8.90764727070166	-3.89441899596746	18.6420537943432	27.8918046654296	-8.77647342954386
-6.57928981514749	17.6647673906221	-4.93373955975565	2.19927663721946	6.7444877686766	12.1559833043294	-16.2739570807286	6.35385193256631	-0.395057364047181	5.22570433833986	1.08253154240916	2.43783613623663	3.58456206039642	-9.55027393549245	-2.0889540647786	17.0350318647184	8.8456278696409	0.28501521865083
-2.46914397415212	13.5741194322576	-4.39729301394593	3.96751719088897	5.4334524619389	-6.46954103298614	-3.4010368847428	8.83480777549009	4.59074086886301	-0.000662050440942474	2.84700676538262	3.2381140512438	-5.03940567392716	-4.86718226687005	-0.690244490758573	14.9945147512558	-6.4445100151808	3.04942542335063
1.12481895939621	6.40914536449612	-2.731671240267	4.23796311393614	12.5155459225132	-18.8006736167157	1.90327755958167	8.9995971575417	3.67174260627868	1.17896305915944	0.378569485287231	3.81098104683612	-5.64610992835938	-4.03961284199681	1.27072100816161	13.0327487851154	-16.918866965559	9.47906365315408
-3.69669693962639	5.05504722705844	-1.38289031548732	5.30138256625165	9.05668510306406	-28.0074043343466	7.71247202461932	9.66530374744952	-1.48422119636243	0.154659936569541	0.440725599102755	6.16567819888652	-9.25085553707489	-6.79369499179915	1.99614126350093	12.4754658061594	-27.0331801086814	22.5815958212132
-7.25399344707355	6.04139796976378	0.206596269109689	7.03239470488077	0.823016338428111	-29.2364852888252	13.4520428946883	10.3449668041793	-0.575289856654926	1.65009674869527	-1.08499571293821	6.03658431757856	-11.7833700448348	-4.20045262802863	-1.93158150058789	13.2989449219219	-31.0786878315017	33.2669298250366
-6.22288020029382	5.44284520938817	0.331558466441908	4.24558908160631	4.87415157315228	-31.2752410426496	12.2151678666401	6.59705582838984	-1.30830012229757	-0.034541363639363	0.777404943670053	4.36254909940945	-6.23092431115376	-5.0598187754285	-7.80444580024966	11.5063231123646	-26.7560427203901	34.6339687487107
-6.8428295588637	3.92184666077718	-1.56438439703486	3.67108609450024	5.13936343913729	-28.75693185665	4.6881473291416	4.43036316030248	-1.55126934885349	-1.06761854956018	-1.59146873774499	3.39607543553753	-5.57613213670194	-6.4700595938898	-10.3861478963679	7.93328169889099	-22.0195341408851	31.2946746256315
-4.84086858341547	0.791961135108075	-1.97477209105649	2.40914715428373	0.549722410487256	-14.9845984684255	-3.95124274089689	-0.140425493014913	-1.93450783576097	-4.47284104369966	-0.538927842617753	3.33174433699823	-6.97950688304148	-1.52373758822842	-12.503376547284	2.48007672670381	-18.5506882249519	23.4542785591732
-4.14598242207022	-3.40572249997421	-0.931144466458267	1.69680263091683	0.776036755488203	-3.09634667701998	-8.59825238170923	-5.38443549578349	-5.09489751272742	-3.04969284662053	-1.93929962508329	3.29784322684537	-2.39330105740013	2.29343915434669	-11.8607268248655	-4.34240907110557	-17.4327581524466	13.8581451103783
-2.25085186894919	-2.04775805769402	-1.50053027665884	1.58691764119227	-2.08252039680556	3.54552051120417	-11.7662486700714	-8.13093008636212	-1.2446070584568	-4.37169866054794	-0.743308978060766	2.14739213495572	-0.847272150833753	0.926455173855988	-9.42698586257099	-9.08637580248613	-18.5690525380498	10.4252043197905
-5.05664198721898	0.134947864659052	-2.33768839616098	1.45680575093372	-11.1095591936506	10.8013442225211	-12.644059299337	-9.95802016275789	-4.79197964170995	-0.528222635073597	-2.09347463072315	1.6111001397195	-4.25531804707654	3.04099304218201	-8.6060124441348	-13.089956984195	-16.3024001713874	10.4877850547467
-1.14088128608117	-1.64489723668689	-1.39704642536941	-0.517141852094161	-9.68043174172342	11.6640960967068	-6.80223580889537	-11.591772242026	-1.34973691649891	-3.23079452878059	-0.541547738285375	0.422112383333245	5.07515847303103	2.79427770773715	-9.43072708258574	-14.8490527941204	-6.01063006953373	7.21035716942664
0.838200963999101	-1.94120913055617	-0.781711888573288	-4.32526964058548	-6.29560102533937	17.0960006160317	-9.81268217909027	-14.8491884013106	0.306869395852733	-2.23204144245206	-5.40068185492173	1.11586420580521	1.38349086844959	2.83190696594769	-3.36036678541714	-14.7165020386887	4.23110996179153	5.14335602163472
3.14230231713822	3.28901107769432	0.0214381622037503	-6.20785999772549	-13.1635852330447	21.5953738374083	-8.38589608794006	-15.1813460086184	3.81655523684756	-2.68238949283564	-0.387965881707426	-0.501308302993689	-4.1465192494027	-1.39339381819851	3.72713084060084	-13.3226712651944	12.134485126535	5.67577979522414
10.6833300335299	-6.14989503336718	1.02404517111785	-5.97926813976301	-3.93650486584218	8.44015608941684	-0.757973055992537	-13.7229234358352	5.18034820535651	-0.346449414118744	-3.45793132550607	-1.79775543421411	0.790528496887692	-3.54773905275951	1.73945699237958	-8.95949170476087	12.5222286526035	4.83739216689684
8.6229930757814	-12.6600517988626	5.50285376285438	-5.23035200055869	0.919637050290859	-8.37703188457562	9.96821657045352	-13.3090549124777	3.53093274889885	-1.37315230744782	-2.98103980564625	-2.94129759659034	0.153029520350565	-3.91788408511739	0.969960964569035	-8.00333957611116	8.65359597592687	5.36698041862081
6.3949445793967	-14.0304995853604	4.3981165427693	-5.0256537529259	8.0209438372386	-22.1372078038752	17.0861751905943	-15.3994151582465	1.00564475509581	-5.27269744371775	-1.81762319958293	-2.17841632791547	-2.11436526231908	-4.06514868131365	4.70551510384795	-10.955505094504	6.03223181214539	2.37317256969763
4.80293300922769	-13.9687112147746	2.64034382017199	-5.6116369285672	16.8376749130852	-29.7222136797804	16.1527350589908	-21.056768086036	-0.476170807398107	-2.55085155972806	-6.75728140628735	-2.35276754052861	-6.97279406297419	4.53332892231878	1.93421535492489	-17.2833220080099	-0.90755023802445	1.21734140448833
7.20034202177994	-13.9300867291349	-0.760518220049208	-7.92153333101469	23.922059892951	-31.617481461777	10.1735483608377	-25.6515830274823	-0.163557979728226	-3.14298177206301	-8.59149682145559	-3.51375968517206	-9.16908226872382	15.4488007745164	-7.36584830759027	-22.0873264336729	-7.27427316599321	-3.6382042356159
9.18169709238571	-10.7530111637497	-3.93981792687537	-10.3942558172293	23.7760876157086	-26.7486472553922	4.17509685267685	-25.0529502887031	3.3344469008184	-10.470863723867	-4.77925803698636	-3.9897129554338	-9.82407717354892	20.6653776220382	-15.2144088952571	-19.4773046289421	-6.2884090511287	-3.80075065907461
12.1556720754917	-12.5649276626672	-5.32099074173212	-7.69334131823846	20.7409622869049	-14.2838524256404	0.44014892579144	-23.2079478175064	0.375921951938726	-2.53073801589909	-8.66463760559356	-2.60413397759222	-6.17842428574817	27.5448873294611	-21.3871250558584	-16.290027018305	-2.18802630267693	-1.07200529535472
12.4869639247708	-15.7718157913999	-1.64598012422177	-4.20040578548169	19.3648052680243	-6.24487851950089	3.42248805707089	-21.2019889025654	0.482192737021316	-4.21904400070512	-4.83673453048574	-0.557651982163026	6.71557539765002	33.8671425968758	-30.4643474335533	-14.7779446579436	-4.54942812238001	6.93217281128839
4.15021451604174	-12.1800775006325	1.98016661040662	-6.06274774285405	18.8622619021015	-15.7022829122903	5.97610224227099	-18.7563571713065	-4.46653237874395	-3.58555523938567	-4.43668973361447	0.376333234705923	8.41252093919978	35.5346350717855	-39.2471383422798	-14.3202936079297	-10.9477915214217	11.9813399467349
3.80790648602613	-6.24585632799056	2.50730103756071	-9.83850398025423	16.7932795164709	-24.0581662066712	7.22910904629827	-15.8300505602886	0.0647808774742256	-2.83790612708595	-2.69555977103102	-4.30046776401521	1.93852183205386	33.4029457863119	-40.577275130534	-10.6300206920224	-16.266822570472	11.4629232115937
6.03689898398459	-7.28948841213427	3.06902050262392	-9.37117770505121	21.9272990344985	-29.4576147411938	10.6066361494636	-11.4538260218985	2.89576904629499	-2.1578252764332	-2.15590046844194	-6.13678993199682	2.61084712283104	23.3696776610448	-28.7104402492975	-5.64759011370856	-23.2603933041973	11.5806097767009
4.31495801404632	-7.64556631815205	3.63065672897446	-4.3711748006591	19.4088789833001	-28.9219341766633	14.5874649694851	-4.57227547562719	3.06799525545523	-2.93657148498522	0.0286652965137684	-4.23121544277415	-3.04736416267507	7.87227038741198	-2.62432582660519	-1.69844609763702	-27.4886281181563	9.74632282365143
6.50748977571347	-8.7020961880429	5.71994629193677	0.483371271061802	16.1978333646228	-22.2654985552991	19.8528209390832	-2.3397844946025	3.15346421229825	-3.43300243222834	4.31697662798542	-0.028727257386187	-4.21000216293224	-9.97684969270743	24.6198077359424	1.01241537350162	-24.7869177225064	9.37618429259738
8.30521268670799	-7.47732919114305	8.65014070926467	5.08988321692184	13.3661021525256	-4.71239203338176	21.9941041643487	-3.14632243790395	7.58414798611711	-2.97974065150304	7.30663131565797	2.6568687714794	-1.8017721648809	-11.6114434309575	45.2203041252627	-4.30559668383565	-17.9923317768739	9.66854840751268
8.85381133776194	-7.44082877267855	7.67634574578752	9.18986687782472	3.8504664467202	14.6792271403954	27.0835808744864	-4.35591564546233	3.07464810670451	1.75115191229978	10.2266576914355	3.22673747825583	-1.33850059669485	-4.47010090749449	66.2495634318109	-19.1836031114819	-12.3571781167683	8.52018794787873
7.52811130433998	-5.84968343638645	1.30510344250927	9.65060031664645	-5.50628194978544	25.2527426124289	30.2112196520272	-8.21861681942109	0.98807053569902	1.55715834556436	4.49920575034806	5.58969699549782	-2.92555045677824	-8.5478566224775	83.1839955915816	-29.9715250170763	-9.0343851149359	7.0336177237496
5.70424913225378	-4.83490482621534	-1.68314391261494	7.35682981848676	5.43253395743587	17.7416422348092	16.5203324282447	-9.67705000005326	-3.1224494261657	2.07834751277552	3.47287394283147	4.11425818246896	7.24877221720872	-16.5215140758845	62.6664660956425	-23.3762656165303	-8.85935770292312	1.97513984999603
5.11746740604268	-9.70259690036929	-0.848199488678726	8.30253759845613	12.932856867447	3.29563840661944	3.55435914321666	1.91703806809792	-3.09055622400138	-2.47219651715941	2.5906018726137	5.84135948399789	9.2182925460359	-29.1966917678474	43.7433899857236	-2.06509827853111	-10.9709325726157	-1.47144838100088
1.67806456025018	-9.22201404329285	3.11120601774156	11.24342608904	21.161045707418	-11.7718307964094	-10.2243400727231	18.8931717095826	-5.22031672693755	-1.24313252675861	7.45745439548957	5.81667748194546	6.01926986586009	-40.1271914547154	38.8349442356692	13.3310239010542	-7.47892922243064	-9.67057841458755
0.122539066460895	-5.16010423159993	3.25683320406975	11.5604754142873	29.7350777652504	-24.4579516964862	-24.0027540134202	34.1735561542102	-3.54212570309284	1.96168789303525	8.62568308998541	2.73449817329023	7.19715556032371	-48.1413839722884	40.8501146059787	15.54204201554	-2.5002526972037	-20.4696559251194
-2.93084471095114	-3.52141141887259	0.411591757975309	12.3982146573232	37.1052768252293	-38.2176706049915	-28.5581924748169	39.4888663222517	-4.07249209616004	3.70866214544648	5.99875638680367	0.722623849384718	10.107450552691	-47.6800849079392	27.3047883407031	20.0861260822177	5.30204934864083	-30.8531489162346
-5.73579119188913	-2.01532409938794	-1.01275058954404	13.6620757885164	23.0950498324686	-32.7226197404261	-29.3064427429866	43.7607598793167	-5.57546292211735	6.90263520802298	3.51899451737226	0.0520431044174572	11.0230497786037	-45.4200776031918	5.51537677295061	33.7083982800102	14.8289778476166	-35.9363873994649
-4.35452267561919	-1.27669665573344	0.495920656230915	17.6290655545644	-8.08818234748528	-5.14916646381867	-25.4063695493282	46.0943778573159	-4.48137764475439	7.11872294905463	9.56222120209575	0.294200373046711	9.7574024245361	-32.1773921641988	-8.75196249978831	38.6226117361348	20.8323730410031	-35.4890106885714
0.501582959560256	3.81065132139281	-0.0781710243901017	14.8867590337502	-50.1964412153756	41.4055173434475	-13.5361968111116	43.2211717064769	-3.6684208750932	7.54011886259103	14.679222800919	0.569901501896322	4.73085426365845	-9.37150667134469	-11.9226277182079	37.4573311493313	35.5042105590653	-33.051626550345
-1.4880491771156	20.2536767034524	-3.14358733410816	1.58646625890139	-87.9330170112385	72.7376881607261	-0.391960778572511	37.5446166497162	0.565709363462766	5.39478031360429	9.49859526028408	1.7494215137789	-5.8237415593459	6.44455215683726	-9.37968571967718	30.7162021428171	60.2338434196717	-40.6176555122859
1.80677161044638	27.2968233210859	-6.89812352892572	-7.21587495028908	-96.1295943542009	80.68268103819	8.90612175800462	29.2434296700353	5.85226483608901	9.07517227628742	-2.2394195625461	2.30157890248714	-8.13969759915697	15.9833926788692	-6.79338014932797	21.6523231816448	66.514263871815	-38.9898794811311
4.98591291598356	17.6307524715014	-2.30599428123562	-4.44881295757796	-84.2217168252055	66.7043041818208	13.461628541384	23.0860683100696	9.57812565211216	7.97654292545783	-0.876499582317808	-0.816310846580839	-7.95112834175724	14.6128009657078	-0.966929232445743	13.3355408165642	42.1472704186354	-24.5979673775638
-2.98125488502316	14.834920919708	8.14675105052664	2.23041305429219	-72.570198932598	53.4982214765347	13.9306335023698	21.0702038828876	8.62719955849351	9.04369864528394	4.28858951402764	0.271342421698535	-6.5982789053653	11.691636421842	0.140266354387076	10.6952360583305	26.4014483145474	-6.9714261453181
-6.74585630302562	15.4228438441941	10.2644601584892	1.23206915822663	-50.7051655734019	41.1200900277098	9.84693486076345	18.9286092746104	9.45506547557737	5.81162088492981	6.83696798651189	-1.93013748913475	5.27331759914344	11.8255432957892	-6.37274961455448	8.46435730930354	21.721573778217	-2.0915033488947
-8.97530849636108	7.31879444426424	1.57424912904759	7.63980906618672	-24.6279504674447	27.1760463135249	3.97880356887185	14.7601347034503	6.01953801727363	5.05259482507704	0.500541521951614	-4.01513022116482	14.3629621650452	13.9163532605709	-12.0730309125864	5.08074960537268	14.2712531280506	-4.04521699470306
-15.0401557750628	7.80443841015717	-1.37328609385697	16.2827482224184	-5.80618440730759	18.534895967439	-1.61126559678403	10.9421924644152	3.42811245997792	4.36985607140927	2.32058923239583	-2.44481300012725	17.8380792099259	19.716714025796	-17.0166750448632	1.52152023690385	9.82704157340492	-6.36354227987583
-15.0472708463632	8.28108962785629	1.10236937806884	14.7605401842454	8.39769650682419	6.36827611248535	-3.97830277941792	4.26618333978329	1.85206304313356	4.67972993807273	4.41778043109363	-1.85284506849264	22.4387606711415	14.7718868544928	-19.336503268757	-2.82029107720245	2.1534589042836	-6.63726417253977
-11.8378833508007	8.28574827506075	-3.26850162702958	0.148287656664683	15.3969244551487	-7.4424037454921	-5.53108414702134	-3.42143670139279	0.701330117596088	-0.903018392115796	-4.97075850234392	-1.49990226924124	17.9168357851362	7.35095315373646	-20.3181165025779	-5.94767257505227	-1.89229556309557	-9.46446499862983
-9.16604819617924	3.73045269410184	-16.1405582477466	6.15579306041605	16.1716499446285	-13.6659944248939	-8.55365320519717	-8.45416797125199	-5.19290632543376	1.7676627696611	-12.4515748097591	0.456457676123829	14.2893347849583	3.5859707544035	-24.0180778190831	-8.35939337699325	0.407708718572047	-14.7695242295083
-12.7320274209836	9.82267480758404	-20.4905630956822	11.5388642393563	12.9683669348969	-10.8188769743794	-9.79767079810668	-9.42090708875327	-3.71347086029758	2.86252980203281	-13.5685458911418	2.55843547968114	8.88660307418927	-0.0158494524425286	-18.9619529373464	-6.97788861074287	1.90627197868108	-4.77414342216563
-6.65732311448916	6.7483180684356	-11.7782441311818	-3.45241815707369	8.10567360045802	-8.34266009177207	-8.01276670831693	-10.5567431902111	-1.10597086737273	0.936167144129015	-15.4316464260966	0.461782815031235	4.6117856512709	-5.51912843703588	-13.0252520040953	-4.87390159998181	-2.19593321383843	7.65121683118731
-5.07172328267472	3.93568809638402	-4.37714494568329	-12.3245166948298	5.92782152924065	-10.6409139059081	-8.33361100546846	-9.3240418922503	-0.957859815458457	0.231158485671966	-15.7519089489084	-1.35908654810892	-7.05559689666088	-4.92260030020606	-7.11662148778208	-3.27592658973715	-11.0174100901166	13.7052152686763
-4.96673144994412	-0.905346616701697	-2.23794570451591	4.78984061755368	5.89430267215016	-16.1023755330413	-6.58362856731242	-6.42824457886847	-1.80242158327155	1.05144807127497	-5.8174885787352	3.24827893712373	-18.486544763319	3.24062609764856	-7.55582813871573	-0.4181992026859	-19.8352630977034	16.1632399899287
-1.6889717417737	-4.62449759326575	-3.9587837884313	-0.352706188380066	10.7527664334394	-19.4451605803373	-3.47918635956311	-7.71775811799623	-1.51122194212016	-2.44386427723198	-6.5842829795672	-0.0855901129314871	-20.2073206772345	8.33932081841451	-7.86601854564099	-0.155320219996298	-20.3878240672358	22.5534419200898
-0.288700386380013	-2.92100411140654	-9.10943993466013	-14.8945532298278	6.67575465076383	-18.2727568754296	0.733081398388114	-9.872587757297	-1.60051477663739	-5.60091606206888	-12.2421978363813	-7.7700689871869	-25.5273625354144	14.2231065971042	-6.40050801370671	-3.03174463155766	-15.3336150888544	27.5245505328405
4.29923842666497	0.275106563706888	-8.72296651928163	-22.5884304009169	7.25464460311357	-16.8200997947284	4.22188119037404	-12.3910110049122	1.15706958296114	-7.78381126513309	-13.5596972671202	-6.55061298053451	-21.7540691691952	16.5192485438477	-5.22790546934255	-7.27185891146305	-8.61008155014561	34.35681133219
2.44594671828318	6.29738783519803	-1.99171365622648	-26.8548141523352	10.8834963354708	-12.7720227821474	5.29185238711168	-15.5858851017989	0.0305007568998225	-8.68523129114578	-5.97158483497429	-5.47687788586026	-15.2914759695518	21.5128466051847	-7.90564001699605	-10.4982897800007	-1.6981502350282	35.3232281222444
-2.13335706078851	11.8173436327858	4.51147016839523	-30.969934057331	10.2999928009747	-7.08484604447801	4.47471547271325	-18.9407506337465	-1.47736919836161	-8.08717118515386	-1.01346730320972	-6.19646963021328	-11.0728727600184	26.0355149453035	-11.6453431632395	-14.5681874265822	4.78623678826753	36.3604732425875
-2.34558984632888	14.2555031716605	-4.46037614043464	-25.5678172364814	10.2685695041082	-6.23602916304435	5.94709096675381	-19.3886233344244	-3.47215707767404	-3.48961274242383	-5.67482956628636	-5.48168066520015	-5.79238544220853	28.0878625906213	-16.0489770868688	-15.6554920881507	7.83147733976198	29.9748030251319
-6.83927956579371	17.4978294137018	-10.4991290634775	-11.7119252440854	7.946947342565	-7.28833741592792	8.98939293143135	-15.3097494895724	-5.51634389946465	-2.16719887393303	-2.1451240487472	-1.72383763750999	-1.76245317866987	26.3680933628959	-15.4208974267517	-14.8464893889783	5.21336124755835	22.0234742120182
-1.55847768945742	11.0823061428286	-11.6126956026364	-5.80602676312261	4.78777276460434	-1.47433302810851	11.0289398046322	-14.9756056215777	-2.86312052679624	-4.7175771476259	2.71698305029823	-3.03117928826399	-0.807828272374682	21.8772648572194	-4.60282114302497	-17.0998415222694	5.09910427664696	12.200968320966
3.73378855374128	6.34060762168672	-3.71613261573617	-11.3715796533673	0.849325851912647	7.74110581775368	8.86426183746818	-18.5551105545182	-2.49314891433726	0.8666824857523	2.26140470268636	-5.64825436777686	-0.733479292200295	14.8943873443135	5.35048324317875	-20.6118083426757	10.7251017872012	2.25729424406796
6.11281250180916	3.98099595415896	4.74541436079639	-9.31466531264154	9.69475515336595	9.36695095973297	4.3477928756216	-22.2066935948297	0.435788542695668	-2.04504030557503	5.78820959870067	1.34559966830166	7.07089897391239	10.3594827997055	6.18640090047777	-22.4139772802049	10.8431167336686	-4.41837347304317
1.29070404972536	4.44343534355735	10.7628274374445	-9.986294753337	10.6872840566999	9.9315712803178	1.87911897617906	-24.8951424952381	-2.53012553226405	-0.944274717744761	5.54693786856137	4.43813445883761	6.08546903651717	3.27319535748852	10.9175513441373	-22.6733839201843	0.0449040656417491	-0.359975973823227
7.41432979424499	-9.10113690398552	8.46244015724116	-10.4184907597618	11.809551095015	0.0479365537650338	1.31432814779269	-28.6584399405002	-4.1449476684019	-1.33129386481122	3.19324303186024	-1.35985921090832	5.07799778497945	-5.83581399084889	5.32224496969544	-20.0510529077536	-14.7889535839234	1.73438255478005
9.08031009741597	-16.9734422738101	6.42201170025207	-7.41149204062541	14.4958046703254	-5.71967663167736	-1.91422059290237	-32.1547078257938	-2.07999966174459	-8.13346468256342	5.09389697907958	-3.76304515153902	6.75957963374112	-7.7368839175552	-10.4287759300224	-13.8867201662116	-22.1730885195454	-0.796565705744881
9.96219399098108	-21.167233067489	2.6507477175507	2.00602227950814	16.6822986760567	-15.46318014981	-5.1219860470124	-34.0583219937342	1.4840935116717	-8.535278237622	3.86707533236916	-3.36415968586792	5.08520947973943	-14.5116533455447	-20.9683908976446	-7.56635475104996	-26.1020312712561	-5.89160849042507
7.74800833106244	-19.3096254061696	1.27333273218911	10.825067002718	19.1433124938174	-16.3796291671158	-8.00260168305054	-37.0820920209846	-2.207253991156	-5.35972805814275	4.92004129605817	3.18372341304056	1.75751673320038	-17.7921839158845	-22.3140543687063	-3.97228882594318	-26.8298735816852	-8.51132073332666
9.16272640130179	-16.6235215022341	1.94755398020058	5.11278297614044	17.731431539519	-9.05717300107549	-6.74538466909842	-40.3369084166611	-1.72559032166107	-4.20040282966676	2.98813379512447	2.53740121161209	1.74201579268684	-23.7598827179344	-12.5926727474396	-3.79749487462886	-21.7310588172623	-7.41508556943602
8.58598528021429	-8.92703794661371	5.36327250277994	-2.82412004952429	11.6576862634826	1.23032620838601	-0.321616503668807	-39.719272222728	0.621967791777175	-1.94000179833582	4.30075147864111	-0.784617685226233	-0.387838993727582	-20.9565569089043	-1.29552623304539	-4.51295411885095	-10.9621544451295	-2.88735605134451
8.13798229493944	-2.91540056934015	7.15784546539728	-6.42410143084818	13.6527218906925	12.1019736826899	5.36045036804083	-43.3966902548282	1.75863936830513	-1.01880635610652	5.52231902339156	-0.305826275441786	4.09909345522356	-12.6921373957167	0.654981956000722	-4.34348232891256	1.61883504685872	-3.43534880326476
7.16996352623665	-1.73372832241202	7.42767450722705	-3.73833804158746	21.6708953557434	15.0620801606167	-3.43629453849857	-45.1306103784192	-0.205464983658448	-0.973550933056178	8.5348808370696	1.76970674910925	3.58662256378391	-12.3580355218746	-10.8771836942904	7.81466725182333	4.85325373429661	-5.0310605522949
10.4143545278795	-2.97092712966835	7.3358995317666	0.467302056361854	25.1125775810928	6.07313331627666	-21.5570848235165	-21.8607301670844	2.92627338252942	0.7437299344907	6.41202232242063	5.16460334689884	0.609330462140779	-20.4326780496439	-19.1710539893257	26.7622974835973	2.11087688403303	-0.909526589043778
10.3103801654756	-13.2053055902827	6.52113989289741	5.24622933648209	38.6705667111678	-33.6241458008625	-34.8061491281653	14.3404408303995	-1.38235714080086	-3.31082909842753	6.32261012024608	7.24301992355471	5.25073250769818	-26.3644394986837	-25.6891211337269	31.3835407372518	-10.541773958184	-4.15535974950478
12.9923389835698	-19.1286706556505	5.00273148313858	4.36959333875092	47.0112427917328	-66.0300838258393	-41.6136881717543	39.7270123216869	2.00243315206278	-1.46479786450855	-0.403434139723287	3.1017920019779	4.37654927475644	-32.8261105895307	-30.7872839295926	38.331328360193	-21.8981498180591	-9.78993212339906
9.12915924055541	-15.8223125371735	8.13212682853714	2.06793401728893	48.7361172100381	-73.0924680678974	-33.5814839636386	52.4723818489193	0.0321008833970389	0.607130439501692	2.75067795145214	0.116998274857146	3.16638513165571	-36.3176843670469	-17.0346605277131	44.7205067905256	-26.1890434615509	-7.31920996687503
3.53792542975102	-16.1294235131623	9.83838211691767	5.67156365692547	32.686109985072	-58.7782888453226	-23.874620654283	53.9307031989242	-1.24505980813736	0.195708630301453	4.1189159173521	-0.15111704908432	-2.03766162155076	-29.0209430171439	-8.21453047165891	43.2370387947441	-44.349107583373	6.79118574337902
-4.85884693617204	-10.0054861056613	7.94943050005949	12.2528152443122	14.7156834455189	-38.1257085211957	-13.122031311833	54.902881052228	-2.65789026625255	3.19883225130811	2.44026732499397	2.35670339248885	-1.06671740764752	-14.7244248158368	-5.08424872621618	39.2462156144187	-44.8217557750139	18.5071672083417
-9.80799625792126	0.344978793406757	8.90280940466428	15.385826096286	14.5152769240247	-31.9352432017342	-4.10951996491795	54.4517145244385	-0.0486648473322475	6.14149653808766	3.32122963090369	5.41155671477665	-0.740920804936941	-8.91771280052431	6.22387997742208	36.3569819098501	-18.2677680070856	16.3019116802083
-12.7316786360671	3.94286975828749	10.9425268605679	14.1345307072624	1.17180535060331	-20.115305836431	-0.462746837435882	48.5260543615945	-1.25239607606165	5.42184398093796	4.97526956859115	7.1435312165832	-8.45467347624649	-14.5381282246597	26.3448209872757	25.7677877519615	12.936233308057	-1.19696736304203
-13.5386568460178	5.0726955589464	10.2934898858933	8.67510190843693	-27.0638253750886	4.36257029874231	2.81743346246444	34.4925703542388	-2.41728729438826	5.70597572597605	3.33042169289535	3.8835203827757	-13.6479387113356	-8.60371945230553	25.6185964759509	11.2418104280472	27.3483976793662	-20.5033221609294
-12.5412567781841	5.8545904003519	8.93487194202408	3.49151051769916	-58.4398278010289	31.2051514393154	12.4569904527937	21.9077573313123	-1.45594419136719	3.44978935509929	4.25600274971264	-0.510131831553657	-17.2646846022709	0.460406871076259	27.9525602358173	-4.01821108223017	35.1518435247238	-30.3576593754203
-8.94377501921654	6.36263785178551	8.88894175551447	-0.378567263814102	-76.5950756974224	55.4997106254273	20.154246871438	19.2065871132562	0.565027251582219	5.38331847677684	0.0804209085682288	-0.0995293126579497	-17.2792268353607	11.8545321854957	36.0588435664758	-12.3686800039117	36.8227188275567	-24.0433864245865
-12.5501793030052	9.9885040453083	9.58391631461113	-1.00587130811909	-80.2371030820272	60.6111445106262	23.3583180137881	24.7529893764318	-1.52121658253385	8.75811087715721	-3.13931347430587	1.91878892847766	-17.1606793195035	14.3203753314966	42.8691315824169	-11.5434787755912	28.0987799413212	-12.3762193908825
-8.06037720708286	7.95172303633916	7.20555208641453	-0.21364708663051	-69.232262642734	57.1723473817333	24.9146089057657	26.6316935921377	0.857053378328894	6.01042903192618	-0.108160303623496	0.123928722408746	-17.8003284216992	17.0287901112067	48.073724631463	-7.81579908406767	18.9635478470714	-5.394242647486
-8.28764786848194	8.57808676844492	3.44221944631786	2.09719922199133	-50.4243827695087	44.5874233643166	21.7334651317889	23.1238120261214	3.79792881619056	1.12023385500637	0.445642255950846	0.466052641124393	-13.1975157968615	16.3642937432353	42.3307820938819	-6.47724228753746	11.0689139908979	0.128841216835292
-3.80933321329183	6.07032121773985	1.31480181548817	0.546411926472326	-34.0662164655526	27.2550211696891	16.4194646870402	14.783177287255	2.6493378368127	3.56733052925182	-3.17921747728447	1.08475085762846	-15.4623408238735	14.7329902902915	35.259676908179	-10.1388796961652	8.24011202714675	2.78200530607889
-0.470296806018076	2.77178116102471	-1.20347270070939	1.41335741401843	-15.9392953769479	10.9051864855336	17.9098383678809	8.9307237993882	-0.258838470819352	2.85463351354222	-0.396142262522913	0.311716288115725	-9.90711632372222	5.5825147611303	36.2443381105034	-10.1132832720567	9.43274504696362	6.80055317231785
0.131293173324665	0.959456941989791	-3.68789321725832	3.23902296652637	-13.6494697473302	7.74995917596874	22.5265913183276	7.08186087762564	-0.746581292677006	0.938305402602095	-3.00973777592205	3.45989353057946	-8.22091066543465	2.33872864183023	38.0291295220494	-8.43800587385326	8.7303387677511	10.7839516458969
0.742423897031584	-0.795345611728478	-7.00340148515489	6.76624553770883	-9.89410355360839	2.91516628808831	26.9425895432882	5.53615587618225	-0.985198192306756	0.958217074204507	-2.98386597553889	2.72076943149818	-6.2123517995846	5.79080739272599	33.0550873053587	-7.13373474454978	7.6571966168107	14.9009319533047
-1.18466678848859	-4.62880707694625	-6.71441792310257	8.11705194403546	-0.93145460034706	-1.72014211018499	26.9435505317821	0.978522942194822	-1.71235029226203	-0.772446172220983	-5.1072673176194	3.18122393760048	-0.858617956849787	11.3658136573367	23.9874310068682	-9.22414994391032	2.58842221671625	14.5345313919038
-5.82437810621978	-6.22563953769858	-2.61956540004053	9.61355798524638	-0.274966377321864	2.33889161170769	22.4975464631798	-4.02441813648155	-1.0453077432261	-3.19656917819743	-2.90219950677022	2.08805136948123	2.32499667219626	16.2543358011751	15.0041841209834	-13.0464630332706	-5.4681373252565	14.6721901789308
-9.53646782992285	-5.21789242329924	-1.85690001257075	9.31867711954559	-8.93000264897943	7.56362998576533	17.7902606063638	-6.95537506627049	-2.90130996142029	-1.63446490919835	-4.11101690014394	1.35420862451532	-2.11952325193277	16.0419322719648	10.390588036305	-14.8444841794579	-11.0145869729864	17.3154873143505
-7.48478984085549	-4.32170962681756	-6.10600887982372	9.77808055021884	-11.7544995291258	9.15776679434149	13.6759431139324	-7.69502862499556	-2.92890172765733	-2.11418412093135	-2.28133448963631	-0.810007459052935	-2.32195745525568	17.317312456853	3.39385978733591	-15.0050330347807	-9.08463656659997	12.9416735814321
-5.49936016236905	-0.612077389973537	-9.74220458896327	7.72399617121552	-10.0632440259658	12.6103500896451	10.7923675103942	-7.84155582438806	-1.04406229471651	-2.22555760204343	-4.17778692473544	-0.682239148594967	0.567689094627895	17.9243218015079	2.58203208350515	-15.5761252299555	-3.17150188169862	7.04731105430071
-6.78113588534062	2.54514862926471	-9.29172409485099	8.32420912483098	-7.57628744444443	14.371650421558	8.96171280098534	-6.87335835801288	-1.88603459812458	-1.07285277644233	-1.59016907196766	-0.654445779561359	5.4844976427863	14.7162365983526	3.23611554649455	-14.5531323675474	2.19234528377859	3.03161290834332
-6.20059682389604	2.11131697582908	-9.37689563504423	6.85344971503603	-6.44535634427484	18.4973318046129	5.69853437612056	-8.34731778218566	-4.24320989000788	-0.000349696630230767	-0.945434525283407	-1.42373165615363	9.01492387114168	15.7152402889572	-1.16567986615995	-14.1612922396659	5.1312708366407	0.993183697016943
1.59773547427928	-0.430715757086455	-11.7674999501916	5.47009952462383	4.15071160505094	17.2563445780061	3.26292553768409	-8.0012720347271	2.57795847763379	-1.44014960068733	-4.63574649431793	-1.63244309100348	19.0134151316222	15.8089432724002	-6.09328660318914	-12.0603621148192	7.0801450429366	3.17855401424088
6.41435785438537	0.286981406241663	-17.3022806683593	3.35673204460335	9.00369613560472	16.7813498975065	-0.515943853911294	-9.67398219917754	5.05794349990035	-4.11518843023689	-6.71150286356047	-1.47546156923191	23.5061918929131	18.187342388952	-15.2218943476526	-10.8765199541902	11.5301528919832	-2.56366619230581
4.8700978295581	6.50348905213141	-18.7201681555064	1.04832323364391	5.78883992679356	15.6808492667999	-2.50064717128222	-9.14039651668814	5.07282822787472	-1.14780056156556	-6.48116328010441	-3.74212242637769	19.1590435187099	16.4196158101554	-18.7357617532257	-7.01425207001644	12.9885475129819	-5.58948713332724
-0.702472005675285	4.98256594621453	-12.1118914458154	1.92676145541599	3.88535203136643	18.8910661138845	-3.43749346644594	-5.72942586391255	4.12152800956311	1.290294081365	-5.10929508841029	-6.20756305237795	19.9600931731561	12.1684369111448	-17.3038028422669	-1.21522842714153	8.33133912383097	-6.2032792267844
-1.40530793146764	-3.66798035430936	-6.65399411617132	3.00748405940972	4.04827216209142	16.068979911015	-5.12841506511426	-3.70907740007288	5.18024465039803	-3.7959573819963	-6.26943475470842	-3.8346508562319	18.2128538346375	8.22748875810143	-16.630703309027	1.47012032420734	1.20399053671328	-8.94010617125518
1.52135892254239	-2.72586194604521	-8.98011004321766	2.49322586943226	5.11865635105845	12.2818505515034	-4.52064696129814	-2.57965978906389	5.38673373269787	-5.96944222620441	-2.05881339739953	-5.04986530638215	14.6691844606282	8.44183629501978	-17.3037498487337	4.49292924528553	-2.61260960378783	-6.68235333301426
5.4352957127407	8.08307379460834	-15.7621906354503	0.585158948820351	10.1785287243543	8.30024141928253	-5.45569682734322	-3.63674366199506	7.4741524038961	-5.01430241447712	-2.12525188771408	-1.99326028098581	15.8465891348019	8.04987647410356	-19.1692721112042	4.65913615659738	0.948191929877016	-6.5618189637342
10.9524352116606	13.5674457644504	-23.2686488326947	-1.22414037723659	12.1708293652697	6.713534503878	-6.87769363177561	-5.28910973420865	2.8132360028535	2.37983401774946	-4.38488234428675	-0.781095910136468	16.6889366939488	6.78628989936095	-20.3786645286	3.62099843845365	3.54282894019889	-8.91041208077313
13.272372440387	10.1611304191154	-23.5120154273878	-1.16877985827665	17.5272529873722	-0.980355243138375	-5.36191263325561	-5.439269305786	4.21794039564133	-2.59289140657256	-0.608602296524746	-2.26373911870619	16.4190585842078	3.98151950183896	-18.99692295124	4.34206067038551	2.08701214172779	-4.91330776305864
4.86042310106718	10.0622354885619	-8.77822270558453	-2.24045222476743	22.1839112582108	-3.34912018732662	-5.55814057280639	-9.54745484190508	4.99344466167339	-0.628746649319554	0.0858390580634012	-0.54655341114014	18.8647318588223	2.43096245900858	-17.56715708257	0.000658420911875623	4.48057525628539	3.99415686330495
-1.00257173466322	1.68124118232008	6.78150513404575	-9.60341012595512	20.9156291911651	-6.60270739163406	-7.05355367673756	-16.5783273565156	4.10083114432527	2.52838245131122	-1.37022312590437	-7.40222601398464	16.9068763546995	0.0174418231878093	-19.8250845701323	-6.41819284147716	1.59206978548578	6.35045538109761
-3.80024755302868	-3.2161113862887	8.28929678450482	-15.8813264734377	21.2081755031522	-12.544526628058	-9.63684775099545	-17.2471168403061	1.61861679768334	0.0393315193688819	0.308178394894985	-16.5745153401975	13.407084745839	0.0766431595194952	-22.3923393069621	-9.31170431460368	-4.74391100116577	-4.33644406552621
-4.56691495677109	0.848081125166221	2.12362939838808	-14.5683740453027	23.1024656691162	-13.9771493842452	-12.8984193577598	-11.7076468541421	3.00455934660355	-0.775431233421709	-0.250628874757991	-18.1420777169433	15.5290877104053	-2.72007013508368	-21.1868718547289	-7.10289564762367	-4.85428749607946	-14.9648358694905
0.379473132809657	-1.456838853403	-3.77717732861149	-3.82941432112003	28.1955673377636	-16.7330987258773	-14.6835609060219	-3.66140334391646	3.45878522540063	1.8534871666078	-7.49647558511584	-6.49975417721745	15.3644267767748	-2.19189639915926	-21.9046091929169	1.84958317724925	-10.9342324134295	-13.9726211176921
3.98526362520297	6.43215070636782	-0.174152802295937	2.42999564252058	30.2377933596109	-21.1066666916413	-17.4534762765658	-0.381156114708631	3.32538666326797	1.46577339016042	1.66784037073247	6.21425674763459	11.5372557937132	-1.29957601000766	-23.7454715292207	4.8042860222103	-11.8861009485085	-5.21051631275579
7.70207655761453	6.66829393773298	13.1925143374404	-1.32479864257305	26.6607016719342	-24.2754414660372	-22.0521966499748	-3.65008172755542	4.39705842819571	2.53147540434936	5.13953835580331	14.1700140018665	10.6943173267708	-4.3722569145392	-29.775674641716	0.136596057851143	-15.3440938560553	-3.78763209456459
8.37635480803461	2.82671994786365	17.5320131640085	-1.25809470837768	15.7046109189504	-22.726176913755	-20.9623149477285	-4.28634025613713	5.91173000593731	-1.95844780943782	8.84559788376657	14.678113131263	7.19098205060695	-7.05714899488269	-29.8927796346666	-2.51127461972798	-19.1014690823295	-7.23552865560491
11.1572360761557	4.8961614565795	13.8393126259606	-3.24747626142852	9.5237052158875	-17.8827897137034	-18.4627043400528	-2.71224916471893	6.0111711868568	1.2526758579932	8.4622682240277	10.9191186283896	6.95128533526703	-5.00323044567974	-30.1744679862245	-1.30762490595036	-21.8025946298655	-8.41966675093195
9.59934690093701	4.41713704917765	11.8744964729159	-4.21965312822114	12.9190138406938	-15.9418929446917	-20.7118191048383	-2.87187415056708	-2.03995926391763	3.45749146483222	11.6514971809395	8.60229791295529	7.48133456850253	-9.48131161961992	-25.1042971192294	0.497701810943582	-25.4588387031556	-11.8379308004959
7.60631577297133	4.69325980732892	7.92828843024462	-6.80414520978552	24.6318910035566	-29.110160389202	-24.7846575182752	-7.89336392450499	-2.83217408163065	1.53059893042518	5.92603002472531	8.7992639272395	4.73801085501467	-20.1196171370742	-22.5248720420149	0.750187495648795	-17.8182070781669	-13.1134151613341
5.66638104378985	9.64819539634217	6.9338192846314	-8.71285180352361	39.696039953514	-45.0181733950568	-28.3918312835936	-11.7510534484037	-0.936818705824267	3.75510420146502	6.26945291519989	4.44780551039917	3.002938283964	-24.5276222367645	-22.9038994726753	-1.0364347480642	0.121181223071992	-7.86499129844868
3.52884703100595	8.099544342415	5.57597155344172	-7.68303143032445	33.1758849910509	-47.38714526732	-27.7610410921669	-11.3734512833266	1.07700017715936	3.25625868246409	4.56366446155812	0.62440817535666	3.13286483312087	-31.5734747780427	-22.8991680077831	-2.00597469905762	9.23637865577658	-17.4014432426164
4.8318555733429	3.70798760801718	1.34581665253483	-5.66621993631141	26.7856971907546	-40.8231194025817	-26.5090651598904	-12.432714142719	1.43496750365151	1.81070055935815	3.63969909591996	-2.66592726134613	8.30184676896218	-36.8360483708949	-21.676638611441	-2.76836130106282	11.8989011659952	-27.8722434956454
11.9103183311561	5.30801313540196	-6.88238492233747	-8.73942668854104	23.3535557192212	-24.3445034222093	-29.6742681964822	-13.0055287353511	3.37523440726213	3.70230417470798	-2.49127332032725	-2.98974540596332	9.84297905493925	-36.2471681777659	-16.6781522394667	-0.588403272528033	12.0659799758656	-35.8743987902898
13.9968708900344	3.30262437695019	-5.91688227519432	-10.8155173248699	31.5380104423234	-27.178184397397	-33.0482552826574	-16.3850895945145	1.82358161710974	1.78689355416036	-0.619746702139018	-2.42363280221068	12.6212732713942	-43.3911432188918	-14.4945652068364	0.190916322088519	5.5115566194457	-32.8791138871939
14.5846106949346	-2.97359214023452	1.76747932820994	-12.9384352763113	43.8199693190967	-51.0386874055967	-27.0801091292975	-22.7451934716505	1.64523857201974	2.7852744063134	-0.74188065228239	-3.24856971945204	16.2455673424902	-60.2184501249837	-12.9370499744956	-0.134087930458904	3.72877023912379	-28.5055818890219
18.8184016742535	-9.26465265265615	5.11217148089724	-16.5801804389965	43.3636801770268	-70.4845271015528	-19.8618079263228	-23.1064741683812	-0.713950370496221	-0.761027344199206	2.35945160199282	-2.79873382379931	9.89312239413605	-68.425760505349	-12.6325895841271	1.07609867611013	8.48534703635965	-26.6058581927859
21.2357690404438	-12.7500350095057	9.07159683925755	-19.6121835243265	32.8949053473569	-72.259203949517	-19.1794368048482	-21.2631439756753	0.948004173605376	-2.16206271958824	1.60160003325772	-2.44239414140571	-4.4395152059671	-66.9776046832313	-10.1983526520342	1.80859315854902	7.80420095281598	-22.8381240029216
19.7223615685105	-16.1969722031392	15.107562022467	-13.7717914140963	15.8188441510224	-63.355050519114	-14.6349267829126	-16.6908129638402	-2.8289694998039	3.31128588223027	4.58242645056109	-0.203582859245437	-15.3808576110225	-62.4549300267789	-6.5862573423205	5.56009886527752	-1.95021093676153	-3.95632071338905
15.0215611377386	-16.4054893721855	13.2406240573401	0.86791439993799	-19.8701185112545	-31.2744526899711	4.17717483379817	-12.658009964331	-3.35819200536936	3.65404389474876	6.66315152716414	5.76560680628768	-28.9284277771343	-45.607103697864	6.23612534002442	8.67399980321551	-5.18652510189925	15.8106416492682
12.5297948620593	-19.0111953540543	14.3742919212699	5.20983971539659	-62.470405963405	-0.469534572054862	26.5117519450115	-15.5837643393504	-2.69472780271915	1.5557919685841	5.45680987636134	8.78485710244516	-61.863041242951	-19.1663942614373	29.4269358259668	-0.409453251377258	-3.73391118401868	31.0301893638682
6.25894450574609	-25.4917759739183	19.4088091627474	4.34570749520976	-98.6287978802353	14.3893543916069	33.0663078364342	-1.92598149676536	-4.13750275058437	-1.10431649341335	3.89833483590038	5.86516959788232	-85.333806067457	-1.43440690347675	37.2576940996715	-3.58859827769728	-0.781004437073339	42.5662192853744
-5.39684106406876	-17.5483894576918	17.4285299278317	-0.431897974299165	-134.54350914372	35.0145147715816	35.243648343211	15.2946565860126	-8.47046072629157	-2.34618432130194	3.05704734375026	1.81099913561519	-93.4449021839402	8.04489146487751	40.0517855902289	-3.64246431408136	9.32631553011025	37.0109750677072
-17.4787965372699	-7.19125795205446	8.17339915375223	-3.94929136663461	-146.88080198173	62.9319246056531	31.9149877365935	23.272121780918	-19.8765253697528	-0.401471379375375	-0.485493278157991	0.317543325079457	-99.2848160365513	28.2460338361708	43.3098582230668	-1.03284388125196	20.2039041483349	19.5998500932414
-22.9325767549938	-8.0472097622321	0.270161963240202	0.353367739270439	-113.276801705607	58.6989483894273	30.4144523773005	18.5005779771572	-29.1561784685168	1.41608761173633	-2.40013412069112	-0.216031837243655	-88.5896683572367	35.4896273986827	43.2676920916996	4.16952590513258	12.7266900878073	7.93026731295182
-25.5960653006438	-13.9214925585871	-0.575709441799209	7.70878324848512	-72.3176309550952	48.0171528567143	34.297981021875	30.6000794719404	-33.3719229976137	-2.01408189367999	0.775534018556319	2.2259868201924	-62.3204355475807	42.4641850526214	41.7620320866038	18.6918008037902	-4.30589958524127	22.344681559907
-25.9431358295401	-14.6736643460389	0.563233806278513	9.74220594444533	-45.0487717232099	45.7782955618458	36.8075904533688	38.7445804939637	-33.545934312284	-2.70328707264581	1.2649669263507	4.67289403372392	-46.8567807796497	52.2233893162526	48.1339162557167	22.7811699936488	-5.32008293458067	34.4942418660264
-24.3658178060497	-19.4213092006526	1.61606567761099	8.33570066176657	-43.3385087766542	57.2276479565428	32.562408140513	30.6053482134587	-31.101555363654	-4.41738397299021	0.182173256800823	1.50140541251863	-51.8678327000655	63.4950537879574	51.8777726430942	13.5519018028744	-6.2189900434654	36.5329473711117
-20.3162111810053	-26.4661156441159	-2.29565844972288	8.61803406438464	-41.618097005578	67.5063278749559	33.0122951458101	19.27116085552	-25.4104328752908	-9.21674439192412	-5.03768891837308	-0.79508502487149	-46.2480794287918	71.2785127883014	39.2652704577337	13.8759830534648	-19.2373777699948	32.762284705057
-21.5296472151749	-20.4794132798328	-4.90576214519748	14.0520808273293	-23.9175762129442	72.2302144083303	38.7707388299044	18.8687452659808	-10.0021204444354	-15.3187117530877	-5.72492931046229	-1.81698030489062	-20.4632050529973	75.0785758995463	37.3342490270868	14.0025024176356	-36.4489524520501	32.182847565657
-36.3676203455433	3.9659342817286	-6.80739637317773	16.1392451433581	-0.186805339069934	73.112448504189	37.1182949841518	23.9949024524849	6.21722345825579	-19.5166478313577	-8.80439640838944	-0.966016512143021	10.3403092516715	77.0541005245707	34.5959536472124	12.0484771783013	-34.3325303065157	26.4828230133434
-42.1174923207973	18.5331207438893	-6.62886861585607	16.3686835588601	27.718793002487	72.019210971188	32.3230075880468	22.0884621635429	20.7787939940791	-21.371014990342	-13.0101262328685	-0.242209404772595	31.5204501947367	82.0523988651324	28.1876128199397	12.389011845456	-13.4051704764418	24.1392642313701
-33.5428612624401	18.2889622949687	-9.41782731580108	15.9448337068424	52.9727458352594	59.069293576535	29.5168657115671	18.3176279082871	25.9865521161816	-19.4272731189162	-11.2107539746106	-4.07541759908494	47.7819366839832	69.055267407872	34.0078626841622	9.03146625563117	15.0998217470056	22.3222682824307
-24.9888760441646	13.9457329261239	-7.67993777886843	17.0935791416351	57.1987089693635	55.6411668759186	20.663532830285	18.673945379208	18.7285794336604	-1.85507939438476	-13.9317644851737	-4.57123730937604	58.34476277429	49.0188966288998	25.9965804608961	18.8171141906892	34.8176803751905	20.8009031399908
-21.4383675868822	17.100842649384	-3.74716719901193	18.785258462438	60.1978354711071	38.6629165816642	10.9761600944769	21.4300656311742	8.46718180871837	12.2241497565601	-10.3927380755146	0.401972836164028	66.7608521193494	25.1970718069881	7.96635170028852	31.3427021517963	39.0450620086103	17.2073904942748
-14.1569892741412	26.3671710208793	-3.80651732672115	18.334642940079	57.7367432373848	14.9194941116162	9.85290526307254	21.7047471792723	6.97179622462927	20.2696827001835	3.45675941113845	-3.95993097585522	59.2950552822983	13.096524647435	10.3135983997888	21.5087114618237	36.6933319442814	10.7337703950804
-10.2841904440781	32.9054487992372	-5.32790487714173	17.1567622947047	49.1084198720928	7.3830893798002	5.84831172516578	14.9504412470319	6.256524784252	25.1684737410418	9.13820342274505	-6.11308617531683	58.1035109021443	-2.24436200974919	15.069304871648	6.36180846004756	35.3904445721811	4.26554703003347
-0.544826156262165	26.9784865662226	-9.00171871374659	15.5787306808818	40.8957472737869	1.12623455829396	0.0770319689457875	8.84136271916828	4.72500575469207	24.3988220814757	11.4330352077152	-7.54619066678729	55.0922128403057	-11.4835777710718	4.04688050360436	3.28486094735668	23.056235953147	-2.68213693314038
9.75837381395513	17.7981452353751	-8.6355969914904	13.4366834169355	19.2988715989772	3.25764787051339	-7.25811127876463	3.08322782230859	6.56583802670142	23.1007170458781	9.49280140965813	-6.8017510074623	42.9168512137411	-14.4834121475511	-12.8021853387189	2.75038228556354	14.2643397822732	-6.30627768220033
17.6884080537091	7.80244348103755	-8.12239404938019	13.1760213343707	17.0419006495806	-9.0300188630542	-7.03844787709392	1.55846181236251	7.88843256204095	18.0960257939022	10.4213424433808	-5.86132197958688	36.1577363216756	-18.958338392954	-11.9827042291446	-2.68479797778198	7.04698159071235	-7.22771232608893
27.3562750102302	-2.93347037672748	-10.9098661750534	11.0753855667996	27.2600698882453	-24.2020722401054	-8.27504119114033	-3.00827420554375	12.0010271952746	9.37111432596551	9.60436741544248	-6.38818491143368	33.4151801040388	-21.1720124634346	-7.98236978597725	-12.4861156031711	3.71828695972931	-10.2216759795391
34.7295565284552	-10.6698796312635	-15.0870947085553	3.45967272798295	33.4833155959603	-32.0686707650417	-14.0139682744061	-10.4580000568295	14.3806948022737	3.20697029523508	-2.18699986869309	-2.96841031219634	39.3932980935678	-27.2407256906093	-17.5636326655928	-17.6462632376827	1.2174954691317	-15.0439238587018
41.6051695457335	-19.8929355421672	-16.4316302916839	-1.19942947580803	28.400590087638	-33.4011823829782	-16.0054672244951	-12.8385754538558	16.5675679850791	-3.30251898914054	-1.10650501196191	-8.07736974790226	36.4640788660459	-28.9385879129483	-27.5995208588086	-13.7706050679801	-0.704476926789149	-15.1481181353446
40.5529205243732	-19.6371758789139	-17.4037037511218	-8.36660840551785	25.7577530539994	-31.3340826014592	-16.6809197234847	-13.65697560922	17.8266981797158	-6.21904436935712	-6.42222093568599	-10.0400003858531	37.8648598802451	-32.1968762592008	-25.6359152869904	-15.9462932142184	-0.763537844452282	-19.4339933969885
30.0731169665342	-11.5706502888162	-14.2920848266988	-11.836694113679	18.2252887756448	-24.5662578116135	-15.5259411601141	-15.5592875734731	19.4204316458502	-12.6067864456415	-2.87028622654397	-11.5696712363246	33.662553727906	-24.8242735061295	-25.4562281448079	-20.8082498465245	0.980074858170592	-20.5445804266657
9.80765996054695	10.2045779438043	-11.854591943133	-14.603987020849	17.65302280229	-28.6823106202116	-14.7065125762446	-16.0843373810071	17.2134895864971	-7.54542874340411	-7.21256585145129	-8.90183605127249	22.1254592536048	-16.1245110681883	-21.9356999048612	-25.8853860557287	4.5452251012104	-18.8853292043786
4.41161640690088	14.2972105499825	-8.11000163678234	-20.583437354332	9.11819985987037	-27.5681851746325	-10.6685947070361	-15.2233803763282	17.651126105334	-11.8873546722788	-7.82248099251092	-7.92590247477536	9.19387557446231	-11.3165259216832	-17.0580152872553	-25.1612947636503	0.69401894587441	-21.9412865094489
6.8599570959938	9.89581168243212	-0.0524821736033836	-33.826107625754	-13.1595060132917	-25.7096246261987	-8.71692878821392	-12.6934787559763	16.1259856771248	-13.6247518403294	-10.1583930528973	-9.46566180482952	-7.98653787909151	-12.1848413233213	-19.8385059542721	-20.2696530269957	-6.9678742172978	-25.3729489203138
-2.33910713768588	17.6888999956587	16.9713566364772	-50.8319623306942	-31.2162387513108	-20.4393373619908	-8.55568226487306	-11.8793982262281	11.8763005933513	-10.8232793834491	-14.4226698289049	-5.14116421724147	-24.6253239959658	-10.6312983543778	-19.1104377311145	-17.7235965229448	-9.98490564805579	-17.1002174247859
-16.732641145637	35.7316046333738	21.1464497212066	-53.4160537338331	-17.8663838317857	-22.1599610402702	-11.4960168340642	-13.512814697223	4.36629123138326	-5.74185256556013	-11.1762745550619	-0.718804635650875	-21.6702816543749	-9.49956629328156	-16.8938178646947	-16.971510590992	-8.56604449815157	-10.1078672309769
-29.3703382832261	46.4910256439357	31.1502136276408	-58.4923870308186	-18.1485193086497	-22.9756333534466	-11.7683473064113	-14.675792625725	-2.6143778411932	-4.64615415227896	-7.89543141973881	4.93447737074274	-27.6460008633615	-7.17591814298773	-17.548542757745	-15.1978308301384	-6.52767582235636	-4.36580858141054
-37.863500200136	40.9338355433033	62.9642890517658	-71.5137313432099	-26.2626737627027	-23.3980560655794	-7.12629707447143	-12.5098988867865	-12.2795664379528	-5.75777727993259	1.68544597085612	10.8727907987526	-25.0112928319108	-18.6720243017068	-12.4625682522947	-13.1510404036277	-11.0535615678267	4.01671198093932
-49.9030073747293	25.9319481232166	56.0354546331378	-49.3307821683337	-29.6511807634077	-29.7057391935441	-4.36198207142735	-10.4079617632068	-28.34934459588	-10.129206751124	8.73610985677801	12.4760547035175	-22.4891198747712	-29.0719109510862	-11.0070741714118	-11.5587587943167	-17.2320635315647	13.5775290903922
-60.931620251875	3.94719852156063	1.5381778937057	-4.24888002666385	-44.6413063972267	-24.1750206783283	-8.84717514569525	-11.366874951587	-56.6654848470767	-9.42216959169232	-0.671902994640656	7.06443357013722	-34.7786087087135	-26.0919153021801	-16.8180315873269	-11.3418215746166	-21.2261937651757	8.98786363611828
-45.6731839158507	-12.3576120186901	-22.1754505489684	-4.16561929051921	-68.0152133183849	-14.1762628948433	-12.3735990159086	-13.5708318455702	-60.3060354878108	-16.75570513006	-13.3711824377657	6.06105728160806	-62.9619662023045	-16.6277481298493	-16.8525284893158	-11.6936642532373	-25.441028478532	-4.32086434354233
-4.98514896693584	-21.274413934053	-15.5613110611887	1.22988506865894	-60.9488123951994	-12.7235104952704	-10.584952672298	-9.90702303725386	-32.0031848912112	-14.3151632992667	-6.50745423886353	12.2348135358229	-55.9985384744386	-15.5738586981521	-13.9333187495471	-8.65858267788384	-21.3885212474705	-7.25315889439099
41.2167025321734	-37.035041768742	-22.5535380245741	24.3355144368202	-34.2824533515639	-8.83162702165641	-10.6976923351786	-7.73614960117257	7.51463000588267	-9.78674701906065	1.83076195144554	6.40499223740998	-24.7787252418634	-15.5035788185621	-14.0397364426322	-7.22588180651376	-21.4830987715211	-7.47521568018374
66.3174542138256	-52.9108599995018	-44.0548334183286	47.1278090785441	-2.68028745910313	-8.17467046991286	-10.6894567112254	-9.98120024152099	25.5805065581197	-3.43207188962848	-14.6065816695808	8.93771687562881	-0.712566669386046	-10.3139526526109	-13.4599798580831	-7.03911570168231	-18.8108645846436	-5.80940258501729
74.3464935510724	-52.4971215190322	-43.9183213090595	55.0806557958712	13.203446376947	-13.8011286260522	-9.8690784216315	-9.8817657981501	26.8174399676008	-0.373519746807744	-12.430678615487	18.9984649135459	8.06472739413875	-10.1770696713389	-13.1068615898662	-5.12932260182038	-16.5576091882066	-7.47208409821861
75.5409998565752	-47.3676225078319	-30.0078026338231	52.8349436303988	28.7517632374664	-16.0933689562207	-12.8016762956441	-5.53401196061927	24.8410698859148	4.36422563307181	6.96210361733144	14.8331192090009	19.1270185379255	-11.0515763207724	-12.8621215211951	-0.890614670975673	-15.7666639556405	-13.7147092161881
65.6820313835157	-43.6460789961698	-12.2955089654792	43.1194697925712	33.1674821953992	-14.1353519181463	-14.8798820200681	-1.50937731478274	18.3927632677343	16.149289729677	13.0575024188432	5.26035779818349	25.049517808615	-12.486603230007	-12.3090424997596	2.38899886355366	-17.4902505730542	-13.570436522096
35.8568750981711	-28.375814076845	-3.97729171381347	36.1909338603154	7.83253823727982	11.156873398165	-11.3790380964023	0.348258665960933	0.542495361417885	21.8493456787864	9.45555276626506	7.84730936135872	15.2805328106284	-5.81099179926171	-5.61380528822165	4.1028964818584	-17.3945162758499	-10.3850417825992
1.47446253698852	-6.63352862759699	3.19980688582173	31.0095338463603	-5.82410906647654	20.8881406484883	-5.67609010457151	5.39819848222278	-14.8615279603702	19.9793829146383	9.26886429707432	14.6635553902311	-0.723033969897781	8.03879250508863	-0.372324029748615	7.84270545422076	-14.846189309567	-5.87676590920474
-19.0211218540245	11.3615530463483	13.8505957389645	22.6940267353143	-5.59593564308389	17.2915690718604	-2.37531729833597	10.4446357731306	-25.5838178879728	22.0995311388368	18.5350234972163	13.8343169185222	-7.81716034819437	11.9662464010246	4.52142435378474	11.0944414969562	-7.78846560637873	-2.23343982725637
-30.1402232050246	23.4747230113893	20.8286264758841	8.58887156964227	8.71420547773213	7.16217675318111	-2.71804032092618	13.2444595375932	-32.0480539255893	23.4723459396312	26.2449944761875	5.08271136166171	-1.81344096376116	9.07154101201222	6.71178430923372	12.4329170900955	-8.1991754166108	-1.31309106002045
-33.172986557195	29.0173467025549	21.401580565113	2.35202204471235	30.3679930176391	5.17037890842106	-4.48065887819441	13.6324809720726	-28.6398169674766	25.2574664967944	29.4792011811886	-6.49888795532115	12.721417728852	9.96854409007809	8.8382439534154	13.1619882475929	-5.83960652854927	2.51459452277263
-22.5798161389059	33.8349271223716	16.3029811737763	-1.82447130044361	34.7191034398464	24.6469012348563	-5.24193627121345	11.7972323773559	-8.48545523949842	26.9029581154393	18.8940803976092	-11.5779624167516	26.3473367607515	18.0383893329529	8.36484357792973	13.170731109211	6.15295173985487	7.31267117236698
-15.7508849554833	37.1066686739938	15.0054428243779	-2.89371356784163	38.7544379233557	24.7916592729525	-1.82648184481717	12.5844461318346	-0.100901627888472	25.7599253421214	19.0500243766077	-11.2415351157937	27.6586521391167	21.8926353349546	10.1323182880719	14.6204557211824	12.4584050609277	10.8715352332135
-4.5569326968873	31.417608518205	12.4871638999064	1.37337573185938	39.9483133594669	20.7923156622304	0.346176461191094	12.4608453023956	10.9772541632241	18.1667567853758	21.4623738458325	-9.88516934134897	25.6367434669515	22.3932387075736	11.1422185277877	14.3754500829711	20.6632961002909	7.54980817028142
5.16936109642117	20.5623107596867	9.03263526640942	1.21625460394265	41.6960040750364	13.6370318965865	0.822103653000154	11.4986223924658	17.1738375407661	6.75408351684039	16.0497645783729	-3.99712390951938	22.403645539577	25.780048197115	6.41571325761124	13.0543550227856	26.379198970775	3.07472616498676
3.73752674110779	11.466809659901	10.452072518737	2.13669750060529	31.0649418083387	12.0644026332726	3.81016594889169	12.8736863433389	20.940406195998	-6.75668628628945	6.4447252751943	7.16466123544821	16.0977945165106	21.3955154359594	7.20836372466245	15.1115230567093	23.4847804887391	5.13715362166317
0.622674440204679	4.6935338553758	6.45425807778514	2.9253114976105	24.1682301271848	11.5225960175861	8.01286547584834	13.9020374549493	23.3778250966481	-17.5707934938736	-13.8929303942744	22.7816766624761	9.89056905574917	20.9594342745128	10.2557908310855	16.4999349142211	19.9712260986883	8.07579147928855
0.436734393413217	-3.44215043908559	2.47423362717519	2.60336705631098	18.2223923740451	7.90572595770467	10.0856187081813	13.3573733248386	21.7829423541423	-19.8694032261793	-25.8884146523674	26.0470601622183	4.06856419135748	14.8321323524521	13.4810404417028	17.1893733792573	19.4186159026034	5.00644014374269
5.0896216111853	-14.2746334320227	2.32756040518766	6.55650234900007	14.8575270356596	3.33544553298356	10.0132081608443	11.0434423464455	25.2370855670316	-24.3784977294964	-21.7031023966855	20.5435654925006	2.43667457677327	10.833672631382	11.6213092220026	14.3579666457751	15.7708671486591	5.56524083726796
6.31613467791799	-20.1883582863706	8.55459436254839	7.07743431075655	11.5441490813964	1.51362862798898	9.55638847309645	8.9221418042038	24.8751361766337	-25.451751477014	-11.9453871371673	14.2818075023999	7.33396629397342	3.31536023479587	10.1151660144463	10.77181544347	8.9387258873507	14.0183451730919
-2.58191870316845	-17.0254312563073	14.3967251205711	3.61374410941184	5.10983044607746	2.09914380888199	8.26307871768791	3.92847923594826	12.7054086494743	-16.3805946638664	-2.94644981335558	5.02475509825479	2.5424366598491	2.39388778408755	7.08159257764533	7.38261518701363	15.0474762998669	6.10974539000998
-12.6059990126361	-8.36384233299592	15.1660876879657	-6.26246716916596	5.1081530530894	-4.69886530398262	5.61991377079955	1.4019724922088	1.51602471704753	-7.71777503164806	0.884359250275182	-6.74882976250696	-5.21033823902749	0.121619457244631	4.87470231730332	7.64519047659467	30.3214659792891	-12.3733874272777
-14.4112172315244	2.31844075247527	12.9319422372813	-16.9373187719367	2.57036819006891	-7.36301725314553	4.31974021733294	-1.66815453503573	1.23281132416381	-9.59164671668274	3.6191958150783	-11.3585134362639	-10.822825962181	-2.50769886259339	2.97980213805972	8.20965930593523	46.0997693014607	-24.3378453140269
-11.4583160622494	5.97818799442102	9.05497330973252	-14.2469186774914	-5.4006301636152	-3.04325982533993	4.79994635713381	-4.75341329386344	6.12655780277598	-8.79166671492212	4.90889001456301	-12.9158545380041	-12.5314156134978	-2.88026869817261	2.2731515278506	4.741175858135	45.2736022685185	-24.3257078326496
-3.00125099760243	-3.89743818288089	1.01701632649642	-9.0247315547561	-11.3842892664822	-2.96471329966886	5.25978201153134	-5.65573728143571	-0.369803012846257	-8.9538830405369	6.60383129354641	-12.1865496489062	-14.5856046041392	-6.61834632771184	1.630877378929	4.82811571686657	29.3118203907841	-17.3274560665645
13.0928227111027	-19.9706477638887	-3.54761975717523	-13.3780945278454	-13.4005807570768	-4.34478656749076	6.5161025603346	-5.76737980739146	-1.92714044224599	-9.32880153223568	-4.01222222698368	-8.53537513634127	-19.4806930088588	-5.72327810695943	3.23493273457805	4.97239380961581	16.0411344934076	-8.007976242545
20.8085749079148	-25.4790324587837	-8.06354506283911	-22.0175888540126	-16.0563155555196	-4.55890731531284	4.91396074214842	-7.0530896216418	3.76126566078212	-12.5329983508275	-10.8287272152845	-15.1511315623908	-23.216297005871	-0.261264771331742	-0.468870095032196	1.19208012190917	4.77534437600683	-2.71780154889334
10.2298413754199	-8.2529994482038	-10.738654729309	-26.3462183490686	-19.1586757269828	-12.9438767714634	1.22735580392401	-5.17064732218095	1.99250398576198	-6.48245639193588	-10.7322663184615	-19.885812426526	-27.0765421776296	-3.46466085749316	-1.80787394277491	-3.69676703880544	-12.8453488647141	1.58035491081226
-14.6294426651117	11.9602481823544	-10.1849018877677	-14.6923644037534	-15.0332891753913	-23.1002843107212	1.79488474023516	-2.60958951717812	-3.54177918416826	-2.84918299947012	-4.95755758278682	-16.197941007853	-26.1459464997702	-7.08942057240267	-0.978609191098336	-4.7343019997842	-22.7883507561654	5.85681864527748
-21.9383145870039	15.1664719447959	-11.8694510926534	-5.49844114113946	-17.5098552045001	-20.8192866707902	3.94495590755004	-3.07199475936888	-9.22557147729967	-0.515042712341206	0.882585979142661	-15.2817066655025	-23.0977142677838	-10.6405563919381	-1.24840732158998	-2.46950274579725	-25.5399953084766	9.91564919245802
-17.0662219683252	9.30750830743877	-13.0680750436766	-6.31632427075529	-16.2071625342396	-24.305600744981	6.97489702036014	-5.99264666226588	-9.56169913883821	-0.621223092218951	-5.20153665546217	-11.758654088799	-24.8012698081903	-12.0326805822797	-0.239530647872741	-2.45703188278353	-25.831349792337	12.2005099103274
-9.73963097413862	6.11623846161081	-13.6311723892238	-7.66087481803186	-16.9161351847868	-23.9253286762886	7.69875625053385	-9.9565172436648	-4.6622878014902	-5.25913453410851	-2.36692421580543	-12.6270931683794	-22.6834932291141	-14.82015253087	0.0106269927605851	-5.60620608698279	-21.01039678562	10.3224339815626
-7.79968623759991	9.30162243854897	-10.6729523685549	-11.4437459008844	-13.339056789614	-24.7282345832273	6.44422804836716	-12.6409183247749	-3.02272902067628	-1.82731237927329	-1.86301856409975	-13.9017021044409	-20.3305704363277	-13.5968279921907	-1.17593240949312	-9.16065081123755	-16.8883464742729	7.12555239549912
-9.1792811577882	10.2757641096764	-9.33808143650935	-9.84083810873313	-13.4150306160436	-24.7727278138054	6.37552219515268	-18.3011392630045	-5.52013358136469	0.649298104915747	-1.85434349388276	-11.3572576230226	-14.0864030726246	-18.3309627868977	-3.14055787401914	-14.5554517641594	-14.4531429530938	7.62546233660956
-7.16476549282435	7.352757596882	-9.23304318407676	-7.32520431832469	-9.54164692184516	-15.2781836312796	5.65532816641537	-20.6801881351533	-13.295417035625	10.6583685608005	-4.30655128326838	-9.42665564025099	4.20821707399155	-22.5045958910855	-4.04662224239825	-17.5016894623704	-11.344093084574	7.80818915578247
-2.33983430819572	4.17482444514746	-8.74276082355429	1.1269295539435	-11.013445396593	3.9572877161146	6.70782738953647	-11.584447396166	-14.9715457718238	18.7768899892598	-2.55488893569389	-7.03129641440116	17.0419661675674	-14.7113470952616	0.162884438801786	-14.4262811982154	-10.683835849722	8.07208037628224
-0.909101590140301	1.34755296787453	-3.36761227693006	9.54384771559851	-18.1860950600056	20.9225805547441	6.67553597727771	-1.76084263092275	-9.86521066050433	12.564052441307	10.4710519167609	-6.55520688116084	23.4168350534266	-6.44121407620194	0.963605316261095	-10.2880474523924	-6.1501843737076	10.1482762853607
-2.03634552147577	-5.2876170706466	3.16417128950421	6.5578683174462	-28.6571772297393	28.4638066944133	5.28094408816757	-2.48808738203102	-14.0996300820756	11.3947088393004	9.22670094086567	-4.1237026832624	20.5215996173338	-6.24267341170862	1.2330722062951	-12.9125122411098	-2.99864838488	10.074910973853
-3.84703645542918	-11.0817395936885	-0.432472023774034	2.19681242622273	-21.6513002040242	23.0246700927464	3.77623451741083	-8.15217367125981	-11.2252240608064	4.51514554100389	-4.82120699209591	-1.6331501347706	17.3788999539914	-7.74784244083921	2.07939347627732	-14.7130202545563	0.657436995773042	6.76989146716182
-5.13439619805287	-12.9564418823933	-5.89039720991603	1.39965926969984	-13.1260315744861	15.9515579822474	0.509279175555986	-11.7393728936165	-8.10996077636316	3.59581471207291	-15.8163363387138	-2.25109361765823	12.1522072214737	-4.93643643534695	0.0489853704652212	-15.6693234668911	-1.32955005834826	2.05423996953343
-3.72830970676638	-14.2978144759649	-9.0914841492335	3.69611579546211	-9.80707347485088	17.5550670398446	-2.39062974801883	-11.318355851142	-3.97574685977906	5.65742351576664	-20.5229068837332	-4.58026230875701	6.3039973179216	3.75941261085171	-1.03614095404706	-14.9882610088934	-6.3791924943869	-1.32344539183584
0.839262149880984	-20.8675141507171	-7.3998912425846	3.34025839330798	-20.1506473420027	29.2422032989458	-4.86254068157211	-9.84218011139893	-0.640235263875525	5.77071048450114	-24.0011501782107	-5.21720989252768	-4.03205126990257	10.9076682815482	1.67970745321492	-14.1684893008885	-11.0949787021506	-3.35143703815383
3.77363692273886	-26.4243158257239	-5.60696139377436	3.62863517236932	-23.4330093350342	30.0132928958833	-7.19436992858884	-9.51384399247093	-0.898051523917161	13.2223895171131	-30.3199290625122	-6.63341405507376	-10.4925766875164	13.3017434173577	0.758892271961456	-13.6959893620133	-12.4624413533213	-6.12074766129518
1.16085857585588	-17.4140031709506	-5.02835744481862	4.05682617211729	-19.7801307141936	24.1729542946729	-7.97715144529934	-9.3326137026537	5.47090430332703	5.18496032716412	-22.31011073812	-5.57042976016717	-13.4209125641197	10.2132754824247	0.96078213292327	-10.6700866187019	-8.05354598028748	-7.51717223402797
-5.30863036762324	-4.63366702475086	-2.93031814073215	2.30903200657845	-16.7497209415398	20.1829368195674	-6.00913377886953	-8.29194880472033	3.67397351808904	-2.4831532774617	-10.327259967693	-1.42714379946213	-13.6098324963492	8.93715240093627	1.74719953765504	-7.94238614780436	-4.10467078685713	-3.84913788145644
-7.19404820442922	0.0364409075497729	-2.26609440408158	1.96437491321715	-16.2236583346419	16.0733217728144	-3.13354611385756	-4.95155333404125	-0.909029531885388	-5.3048558676856	0.732882366751547	-1.97832375492443	-9.95433457285251	5.86451083658019	-0.737180682920748	-3.40843159053324	-5.44674917707216	-0.264885604384627
-4.71360634782364	1.606210111061	-2.49916992541195	1.95482810756061	-10.4273437627152	8.92529290967005	-3.7406745155573	-1.06672847742975	-2.98264186794825	4.18102153620596	-0.874860319512767	-3.97525740335891	-2.9645534730318	-0.305400552265451	-1.3515662564945	-1.68793356424041	-4.04595448457471	-1.29256796020915
0.851998002184487	-0.94631044298259	1.05790832208082	0.0573730770969938	-7.21288269218386	4.04138344707292	-3.41166522535861	0.727397264158763	-3.74995885495825	9.49587068822414	-6.24398693656808	1.51904406168191	-0.584882470087993	-0.599574061423392	-3.97975130221996	-0.691559372579439	0.645039402853282	-1.58729385752799
-1.07979731454381	1.01829641444037	4.36972559601654	1.61445240226443	2.6930891741127	-1.73113712213247	-3.87124797448352	1.9725663839118	-10.9001293513086	2.39888466988415	2.05403760516922	12.3698841744328	3.03251364781945	4.0423632708537	-8.20808785211732	0.196481394852682	3.13732887240225	-2.25076841086207
-5.95755143292031	1.85162795848738	7.96714365150503	5.01345842407812	5.24648782761269	-5.39040268165692	-1.91558779075745	4.25180523964199	-13.2236295988749	-10.4527847056546	13.4610577852059	19.0900351204739	1.39059225611671	8.25051035944517	-10.0675098782188	2.61870985749727	-0.146095349922884	1.95732726545018
-4.87931527354464	2.38051404227121	11.0032175287348	8.73747425729043	5.38566360506403	-4.19054521576152	1.04865520877265	9.3045706266751	-10.8077599887304	-11.8993990797977	17.7516017434543	22.1974478798256	-2.44661291246533	17.027930971943	-8.03292366125783	4.99994982653041	-6.01842243793539	7.15214414962327
0.292672665034921	0.908430637322365	8.02696316356912	14.3865892770708	8.62612480465853	-4.94819573190203	-0.276813615571466	11.9381794033146	-12.5501660747012	-9.3550899042687	23.0425118758944	22.4773998460728	0.450357198887112	15.5098608881664	-6.52362990923545	5.90270668268152	-9.74620937887167	3.99779636308995
5.97275125516585	-1.48996969922694	2.46596279047501	15.7532347378898	4.31064375945812	-2.21148545079525	-1.20558206122433	11.6666418379805	-13.1630723637031	-6.70134831883906	21.5638806722969	21.002519094549	0.378231078438628	9.865518300388	-0.513988658178132	2.83045736477053	-10.0953347439412	1.37572348365262
13.570851196697	1.14419434973839	1.48603328577102	14.0602537843166	13.9159500487807	-2.75450923503213	-1.94740107194583	13.6228675507226	-3.46934430532799	-5.19701826712403	22.5067833721216	16.4209118168534	5.27640361612471	12.4696012201779	1.7922228743834	3.29867958183942	-4.89455284321526	1.37022983720077
19.9172017855223	10.0545447748122	2.30151222138262	7.61340892222455	36.2961153147051	-8.13064873172527	-2.68221472139238	19.5842647609868	8.39759814076193	1.17684542890544	13.5169461013043	16.79527803297	18.5573507621223	15.1468569638327	4.12173596097406	7.24157293564517	0.991241724905934	5.70360949294751
19.6313661359161	14.8059327662581	5.57470963226843	6.43080737598162	46.3073405804418	-12.0575944612809	-2.94196136012393	35.036698363675	15.2583990172491	3.86855668047316	9.91706604490722	17.3987941677948	25.6571982125231	11.8387250700133	11.4762662303667	17.3722936098088	1.3935445410422	10.8069556774991
17.6307872708863	14.5237406398217	7.24911035938764	10.0521275118681	45.2778694808658	-14.9083103741142	-1.24447850628011	51.3461477639264	14.04261922265	1.59051278172652	15.5643003363294	18.2583334412577	24.0386804429428	6.00177443859338	18.4812837759437	31.949489706918	2.86429757422112	14.5089030824674
15.3855871568743	10.396601771081	1.69587982449586	11.5284735056539	41.6006247990195	-11.765965847146	0.716814485027673	42.0335004856569	8.80685425847983	0.969024968569158	12.843787625207	16.386875405849	20.7117402371083	3.78456743247482	17.1712266176323	30.9174396353426	5.5873955528333	9.96430758685005
10.5847114062227	8.31424815102007	-0.585212004788238	3.50165314228723	38.7009822407326	-9.74779163821063	-0.0407576771682976	18.7826276477373	1.96556243505951	2.60254448393295	3.35798203578613	13.8893117399632	15.7044662671671	3.84167136526619	11.4943110187642	16.6546119218936	9.30728679109891	2.19459355386792
6.2654657923519	10.1050843285547	3.40702495137234	-10.2826188901503	29.2806418750076	-8.23516729486094	-0.626298423304668	3.54105661499017	1.45290591011838	-2.36304487019818	3.21893208378813	7.18616305842026	10.738358628482	1.61948473438987	5.94678313972391	5.65560626923629	16.4711540497642	-1.96347130968734
8.23496097767722	13.4598003129725	3.4169627457375	-12.3002790712576	25.0586362602865	-3.14154481467834	0.164628872684498	-1.83997084876711	6.08161382977173	0.705388253784605	4.85403186572688	1.17041101584643	11.7231905422996	1.06248570764848	5.91742939178903	1.53864382778849	21.930138836001	-3.23531576158192
7.79327585744011	17.3151216501409	-2.62359380819973	-10.2851875804144	22.2425772808799	-1.77513767188498	1.66599271599256	-5.44334170465641	10.4409827470748	-0.118773328581632	1.33828724943578	0.539119451037898	11.2606848622533	-0.298262604340671	5.79420462322235	-0.0665362608039253	19.9946688833199	-3.75937322513198
7.85339221188159	14.5763709251512	-5.21918520988357	-9.48125156794195	5.9208728848126	5.86877459012076	1.22483034728195	-8.70355352165807	9.18252635586924	-2.2090452312124	-2.35658855777466	3.11243379232513	6.52842215029723	-3.69656921780109	2.51041370313119	-1.03134233507008	13.1806423807601	-0.5250419789313
8.01312484649062	11.8928879220588	-0.958361027594793	-15.992928983882	0.0541059000819697	3.25352605781588	2.10534054970075	-8.52332407520418	7.61143113493085	-1.85439758161885	-2.97148012187592	0.169169325636512	0.139048985004017	-4.59507504638829	-0.35726511494518	1.70293960872387	10.3898316630863	2.34803696442035
3.36312047421622	6.00014771061334	-2.3861974170713	-11.6458423963085	8.75475421629708	-7.38035872862362	1.78638368632874	-4.38039141965627	5.60724281143941	-4.37113259006818	-4.93874394179967	-0.966137908121805	0.479390986196793	-5.53970577761923	-0.778389842065669	4.61909238783403	5.88935091231479	1.86129159204641
-2.51279268049384	-0.317155040077154	-3.10487760315405	-6.79956845678445	7.97796012548235	-10.8531679711083	-2.05195185960042	3.90568171589349	-0.618420043808995	-4.0222320702568	-3.36927109391845	-4.72447057252526	-1.48486078599931	-7.11627122242571	0.304016563609706	7.27563745548242	1.43051103882475	1.03742417778461
-5.9555637648711	-3.85957970494857	-1.57179904622798	-0.181073687109623	4.90966732056985	-16.1918455454387	-2.97489013246143	13.8443885529398	-3.76467562541997	-5.26580913477736	2.11603192483867	-4.65356336779861	-7.29554001802636	-8.36713731133912	0.0968714555128587	15.1531260694622	-3.74063335511129	1.98546789565432
-2.64118509948501	-5.17691201047209	6.99470686438895	-5.83722475168101	-5.12290362759792	-4.33126532953242	1.09412767791749	15.9633703528475	-2.11846819648845	-0.995870080019358	-1.96085304191786	-1.5854236788235	-1.31591093791666	-9.31043371873121	1.05715556205671	17.1725181682258	-8.221037211822	5.66833222334829
1.62905684366427	-5.35982840133306	9.31029815801855	-3.91673653304439	-21.9241123924273	6.86019342384819	2.21034067359983	10.9525454156522	4.09341684684255	0.878702104104676	-0.384568342135809	-2.92476054150605	-4.71344041626967	-9.09327512964589	1.71097726248684	10.1947054041016	-8.68284537746866	5.09769894794889
1.17014793013413	-3.37145366286683	-2.63401346855628	-0.21506850428789	-26.4156288048961	8.98678910557793	-0.760748954501239	3.64757610876441	10.6694723288183	-3.27039064772866	-3.47483064404681	-8.97463874261969	-8.83441997405549	-9.50399805671924	0.932900021898878	2.86350546382084	-6.46025067636207	-2.45142958846627
-0.342699424476567	0.0442359899685698	-2.66287412319674	-4.05954391282686	-19.5451022886766	2.49716141424425	-2.43013833309838	-0.514230546187115	9.47395424897164	-0.271645324171329	-2.29412529770665	-13.9290650976253	-11.9162939252351	-7.58592763687095	-1.40193751039281	0.911849318781018	-1.49082359002076	-8.05359771028671
-1.06847988633819	0.453948610855969	8.33878512317499	-9.63076208502826	-16.7586952421417	-6.43169358186447	-4.37534642500053	-0.732700347714815	5.03143794220373	6.07812066810389	1.06013282432997	-14.0761996719731	-14.0842790212386	-8.922940764415	-5.2371729526739	-0.0540428583939843	0.305678776437612	-11.8518545967924
-5.05650272905732	0.338474514478071	6.99275295597117	-10.4996787228909	-19.4205020563248	-3.18003597148372	-5.05001080646155	-4.74981993280518	1.25635472765404	5.46817863249983	-1.48169973036394	-13.4677876112889	-12.5831095054467	-7.39800578156215	-8.07570020491391	-4.34355327515253	-1.80740327162939	-11.9443419979756
-5.06312763407921	-4.22315491675919	-6.246539752273	-5.49606079835546	-13.2479684634451	-0.637651790744591	-6.33371619582137	-11.0080889921953	2.87264025280615	0.692944956353065	-9.32587950704817	-15.2685888035779	-7.2844864562916	-5.17709547249455	-11.3501839521587	-7.41565956126156	-0.607640425118217	-12.4388664139987
-3.54534232096528	-5.49014378198088	-10.5780071920903	-1.57577064542966	-10.6031944450275	1.95734265452352	-5.54803969175887	-16.1812636188063	5.53812095874692	-0.807473554483106	-12.2907490998087	-13.6291622449212	-5.81592220496973	-1.5079791582329	-13.852337862128	-9.19891587573851	2.01412508600699	-16.1140570829768
-5.01950205372239	1.14576596129603	1.25931824101785	-3.52690346275721	-19.5350793231768	11.8398770180437	-1.89586957434982	-18.957052543126	10.7896720730038	0.551400398052355	-4.7791915153663	-12.7032022698556	-6.54593760767725	0.35744788716529	-11.0474517768629	-11.3121829252341	0.271832237160678	-12.4544762576606
-7.43384591311964	5.46057644352034	10.2997900172085	-1.6788216853301	-15.6827760894403	15.093931752035	2.74478353904552	-19.8880097378105	14.472290969613	1.499998332862	1.13414793169862	-10.4587383718945	0.949300234764202	-0.0650690030423675	-7.05328680593593	-11.5630149619562	-5.36966645764601	0.736108313802921
-10.716062171568	2.98768809142856	4.41330527961848	7.0812211093863	-16.6545711967719	15.9041549901885	6.97376184490727	-20.7196141284262	10.649879896712	0.436629205609172	-0.266912386625982	-7.0534444068298	-0.308006361480249	1.25214230902005	-6.26976087050114	-9.17064356714096	-9.16341035984531	6.93786166803862
-11.8043850485525	-5.44738126782959	2.15103833117665	8.1491909327904	-16.0109482409373	12.462174576112	7.93496575472101	-17.2226807310088	2.04277561219537	1.81304412773983	-5.89880738997211	-4.90854940237814	-3.77966116242041	-0.611641332647039	-4.68512119970084	-3.76006494634482	-13.3416682690998	9.91302963441763
-8.14551215613633	-13.6526183301887	4.4604923330841	5.81750462215741	-6.53166625237641	5.34045364112331	5.9017563325038	-16.3642117052712	-1.68545538275154	-0.469366171773657	-5.15369822367656	-4.21161375288181	-4.08980448748305	-0.553709037925005	-3.34530510593307	-3.66484935267933	-8.0312498869426	-0.114716480305808
-10.1812650899598	-12.2577982941666	7.0829254755278	2.90912082844325	6.54145677067028	-2.75532839152438	2.0595946383598	-16.9523731827217	-2.47881442287781	-1.98771603699524	-2.57095660160281	-5.40953001867949	-0.748874254416204	-0.797590754924217	-3.24377582895966	-6.31640932691593	5.06915113963225	-15.3152370311273
-11.7616206227747	-11.7619741494963	9.9040731629447	1.52138085635093	7.89088259516096	-6.58049434123772	0.903682500425791	-17.2647363970159	-6.82561751063696	-1.92709241770657	2.76799085404462	-6.11342167867642	-3.45977431263316	-1.62870126056962	-2.55462849515953	-7.4075615743046	6.93493601318273	-13.237042573463
-12.4024825312802	-7.23491864069008	8.41025800504044	4.95553753582139	6.33022739255565	-3.03905582796784	-0.150548718845336	-17.3623799731726	-6.05621897406123	0.0210797912915801	1.81593084364805	-2.0523972919869	-0.459336391813977	-3.43961745050014	-1.92599232103636	-8.3968109640796	24.1282207484957	-22.7196119398902
-9.23097663580046	0.157269595969773	4.76433815109174	6.44700610227587	4.98224779806653	5.24574956546125	-0.847407173720438	-13.8963134070723	-3.4474377669817	1.7630036268204	2.49730037021289	1.32477098348533	2.95671427794193	-1.10758685502699	2.49043897420628	-8.85528961438614	35.0155616693876	-30.183756059969
-6.18784519992353	3.58401197549561	1.411610598925	5.64104519863504	1.54184628671136	6.3059296306668	-1.03038309689696	-10.5934718227405	-2.485277676097	1.95165296310385	3.85165713934433	1.13079014678095	0.191826370406357	1.79424348331271	3.26648439753157	-9.02863325350996	24.7995441721489	-24.7698123502228
-5.95658754569644	1.92040724097902	2.51435079146439	3.63405902737618	-0.183295566264278	0.374731917759499	-1.44682758978675	-5.15734839466815	-3.76963036284538	2.61329081651445	1.81962702038419	1.44894204006989	-3.95859101183113	1.95925058058839	3.04415032396565	-7.45754952568259	5.90795927930489	-10.5654480664625
-4.82576834613583	0.799963507354397	3.40024241663493	4.51194637840221	1.55422669603817	-4.28617765496968	-0.348335157649679	-0.5423353879895	-4.77937928740337	2.28285701188745	7.67347724864728	-1.29057101687565	-4.69728679830592	5.39969667381861	2.5601879612839	-6.88521934136729	-6.81543998734283	-2.01688546687675
-1.84097063655091	-3.61748401638953	-2.84886517177829	3.11821022469726	-5.03803768405342	-5.78914493100198	-1.02277345025257	-1.41837826667249	-3.16520204945488	0.843302077974926	-1.62151331958059	-1.24569630896093	-4.07248796750877	3.10226410676976	-3.15246836007498	-9.14564211116647	-12.8534221850003	-6.40655067790848
-1.79050368533687	-2.64086558263787	-10.9298327042575	3.08220442058124	-9.77694344357268	-4.29492621350856	-2.3189398452281	-1.51281361747396	-4.34231774580247	-1.23380932146483	-1.72713632178778	-4.97573416259592	-5.16638909366595	1.10214800191615	-4.42411528505034	-9.41526674298314	-12.0383138730496	-10.3747049959928
-1.45046292756075	-0.454346278267426	-11.8348524978719	0.766232288328034	-3.94092535274774	-5.36224463637885	-3.00383975378675	-2.61494914172629	-5.18744400459822	1.68323826458312	-3.79133615814243	-5.6778875172145	-1.96423704275147	0.953831273693291	-4.54907010390551	-9.36248301167594	-11.9779832948461	-5.11467810726243
-2.15061199231956	-2.88536110081845	-10.6664306323573	0.717483035136026	-1.62540932051174	-7.66825271264317	-5.25292403685005	-2.32029060880716	-7.11747767310073	1.85917708772962	-5.76301502751842	-3.9636050774698	-1.26218134389546	-3.67710958152443	-3.73754027219105	-8.19004548120119	-13.8425230386769	3.45187745667863
-1.41836467283184	-5.21948960115964	-11.4795838294983	4.38129172341568	2.09479471999871	-10.6457328317523	-5.14504675564357	-2.08143617927403	-8.76401704424759	0.629825307578713	-3.1117439201803	-2.49021072322493	-2.10020734458484	-1.26648887053163	-6.13771114434626	-6.27301368720851	-15.5180889036754	7.13097089390511
1.51769275084297	-7.57391180048544	-11.355955213612	5.46896258012415	9.52175606820086	-12.3944250264595	-5.82616420859807	-0.0324733870910094	-7.46672628995085	1.05688652958055	-5.56455768889074	0.0311857661307666	2.91443891949243	-0.761666522742455	-4.84155238600698	-6.04252656469066	-14.2119631481217	5.50443316122213
2.08810088345663	-6.29392310827084	-9.11624835642344	4.61744325345916	1.2022154949871	-3.54356979566746	-5.46635874505024	3.62786453800028	-5.52242663992138	0.710900613355642	-4.22396980947358	0.330868508260837	1.0286749252288	-0.660092933054965	-1.42402452092164	-3.12440597898251	-11.4592636426066	4.71379924994242
6.56062924899853	-5.71784301354589	-9.113615973445	-0.0863274559711547	-0.742426995333584	-2.3024218767324	-2.64451142213263	5.88955955057181	-4.84481462239948	-1.24291394168603	-3.4559111162797	1.18648248640171	1.16992931996044	-2.64716370653226	-0.262298830211006	1.93973247315603	-9.32891210822041	9.36270604666594
9.79895970869369	-5.52318970255179	-5.91823879105488	-3.77273459554231	4.23015642055493	-6.97659354585202	0.89218637239713	7.74396102980804	-5.01609416469567	-1.63057558124616	-2.33355844643061	3.56502481191715	3.56924557405914	-2.68126713971583	0.214365437977559	4.7873664045872	-5.23091472750232	17.2384874861618
8.96756017311281	-3.18453629065104	-2.53009747933829	-5.94490569926206	6.14259353792171	-11.1122540322567	4.92480223775444	5.6968711066646	-5.9036965082283	1.65263963672166	-2.75577562243208	4.31485319780014	2.61953279502568	-1.82233960905979	1.17442906024987	3.68039060386825	-0.630679476620687	26.8832152053683
9.21368419655141	0.722825503190519	-7.60827380812481	-5.36413730294309	1.8225109944971	-11.4847834865731	7.10348736040701	7.03700642456922	-3.65665594216324	-1.0866055650447	-2.22609296321236	3.93345305909432	1.24775072197403	-3.30169876965478	1.5161626362384	5.01600670434254	2.96531637508779	26.4305035622663
12.2308250765958	4.30269373688755	-5.74646200020413	-6.63874357617537	3.51623409051088	-4.50218515108478	9.568427302504	8.69297591975796	0.386847247972003	-0.034441129115022	-2.27093218567065	6.06683930391757	5.05246033709808	-1.13440449490079	1.84925058634349	11.5081457331473	8.10059097611975	27.9145456105454
10.7806926146204	3.74997598538679	-3.53106466311277	-6.37468561537453	4.68675948978894	-1.52083631678558	9.41924440421188	4.62440789283382	-0.82469894325811	-0.775664671545524	-1.38299916211726	7.60828109844081	3.85195135238521	-1.31342435025536	3.51808252144931	11.1529659464699	11.4687737756876	25.9409988781927
8.87308080815861	3.93366793714832	-5.72422961338885	-3.89618524606792	1.25734799464831	-1.44714253678981	4.90242942877639	6.69255820279125	-1.13426314709815	0.814553249538989	-2.85613124119931	6.36217502460864	-2.12633807073929	-0.0831059289247094	3.87009923551745	9.74453785357268	10.2302337776466	19.4873472141351
3.94777958897042	6.5538000075644	-13.5199931445003	1.68875143143637	6.20770154576445	-5.86124514681135	-1.51213373313079	22.4538230245089	-2.29015444744729	-0.446091324926631	-4.43283419889534	5.83941785474013	2.7128917198055	0.764972478628483	4.0926525516952	13.717628940202	5.84004051756341	5.14394281981377
2.84801952439687	7.98430598304834	-7.24986599368378	5.60154437590447	4.67593769066568	-3.82738707185396	-0.682236845471889	39.7479919503856	-1.50724568747083	-0.615019234102711	1.87761806671181	9.42865074452764	4.86074474111841	2.89470967654638	7.80278998329352	24.3560613227671	3.65520248391345	5.58605156984435
3.29968915723018	5.0925335927254	0.941661644779641	5.08007226104771	0.4306941996904	1.88839745979725	-0.1915808321113	35.5278094049615	1.76725432713812	-0.561099444447899	2.09283616538488	11.1149656077078	3.6500860022314	-0.511160306294107	10.9004346622321	23.6159598741685	4.50304839363991	9.26490037258815
3.61773527799606	2.76149758271665	4.0393794658664	1.44890109496505	5.29425778497483	0.691665778971973	-2.04705165456604	24.4544646849705	1.64923520298199	0.523090968713547	-0.191451134244433	9.88663838409306	0.394651339604099	2.51789332792882	6.11549226370821	19.3652996631102	5.27807704201003	6.74509655359438
1.0200627488817	3.39291171795099	4.47077557380993	1.15547060057768	8.6009239537926	2.29485721241445	-3.691032472923	18.9044287177844	-1.07079921293736	1.6664468916729	-1.51426317706071	10.9578361395455	4.12875639268682	2.22810857449818	3.24049655424496	16.5118158896385	7.77636345305463	-0.429681647548655
0.603817829795425	6.39923478578651	4.46921289180074	2.68265623649836	4.52280749044216	8.92780734574572	-6.08706718658684	17.7814926996432	1.42923197926424	0.834431332634388	0.600935627270289	11.2903228047121	1.20018411059695	6.39234584942452	3.04919384518573	14.5033165440371	13.9691121383442	-7.97190567059351
-0.346741952278801	3.88827771259317	8.92221868586679	0.415797173882064	-1.62371533881359	14.2921539464468	-4.10728450021347	11.6898573077878	1.82078254339862	-0.975600293875353	-0.0800093348975555	12.1143787054375	1.63571110028523	7.70265556501884	3.28330090016271	7.62934384974071	11.0107337374693	-7.17907444467076
-0.657057844994499	-1.13224370122165	12.5597670963534	0.572813861388947	-1.87602338529737	17.0994828273874	-0.688573421284289	-2.51696342809114	1.2638938093049	-4.2362615191577	4.35248901117303	9.96315811020593	5.21395024402618	7.74051239945167	0.609642762168713	-1.54618281293195	4.156752917378	-2.10034906261991
-2.78448711672743	-0.280975704824558	14.2685236708906	2.47082242325624	0.501321326278161	14.2024454760129	3.22218716144646	-13.1032447691462	2.61334725439957	-2.19661092267575	1.98739486937729	11.2697520714938	4.00177434626478	6.08223296110105	1.18617456940605	-6.44747268218055	0.7905696126791	0.308132699964489
0.411889831184809	-0.233619772655294	12.7857495694299	5.42838431835543	2.25682177150485	12.7091106915759	5.67863862105127	-19.3044038440281	1.02748601054034	0.528852685243458	5.14899670527448	11.6870685452566	2.65580296735327	7.13904440267329	-1.54970949301571	-6.90497063690693	1.19400233905264	0.961281121300852
0.241012541603835	0.617299553073067	13.5718462140539	4.11508365540658	6.14899526057522	10.4296874587102	5.48402585205513	-24.6305205604903	2.4362382096738	-0.440105508546247	4.79646545475837	11.7526438082515	3.432166423356	8.84831726259801	-2.5202787676173	-12.3280169074865	-0.61771146010326	2.99085597273539
-2.04659367347877	-1.73739470010141	9.31052910466638	3.04619056910513	-1.72930949035913	10.8753080686375	6.44723901849027	-32.7456981942681	1.14537257744925	-4.92802450924024	3.3279582108892	9.02742502109312	1.59329865468813	8.84274816639768	-4.78258341165983	-22.8059240069255	-4.39404598110419	4.14565877278804
-2.53055928496725	1.99240800374051	5.38605719741044	1.40650037753612	0.108453066508772	9.67364378527621	9.06553757476445	-30.5676678368547	2.62903807772858	-5.27457496377348	5.0182084488747	3.88173473089002	2.8134494999264	10.6297323873524	2.68602075896265	-27.8492360565467	-3.94091780445095	4.4213356141399
0.574711092985789	-0.32743967572323	2.88598383544898	0.581711589394319	1.42139798294974	7.01670053753981	10.750901972085	-24.6921917819247	4.19358777427074	-3.53236786687952	4.7499931093954	-1.69624617468077	2.58387921706315	8.38690050126959	9.288727406798	-25.7626984144808	-5.91554098009588	1.43995618208267
-0.534520334785824	-2.02697334819354	4.34250232997626	-1.30666418968762	-0.761640736583898	7.13523199263587	12.9913495080235	-17.1088853021611	4.07314087688526	-1.2856547697858	2.05321562519001	-4.36635727498019	0.659435672674048	6.46276752620082	14.8223346177417	-19.6884823547022	-7.02037416951275	3.62234316738047
-1.13880914472478	-0.408662226863183	4.50106420777123	0.379432097516325	-2.01414983659099	4.47019955810897	9.25176545726236	1.81325081612129	5.08323386363029	-1.61743410039064	3.88519977037977	-4.01797459991982	-1.54255123133821	5.42661980753416	15.3449489167542	-5.70795149804854	-6.7214291174969	4.77611479736196
-2.58752669935707	2.53998396664606	6.41074160445882	0.901603169350233	-0.0706952976906141	-0.760793537165648	0.543797139122398	19.2469671555909	4.51150441029116	-0.909482565113233	8.57329508729848	-4.91051489137837	-0.931149962605967	3.24165548710745	9.88939591380714	6.75937402154845	-7.00310014748935	2.9111107693361
-0.649553949971343	1.73477335012824	3.79854018526867	-3.63288114991641	0.27310226669568	-4.27276986541751	-6.07229816726568	9.69360544377197	4.65906075223434	0.498673241269637	4.17255978940903	-8.07941534740385	-0.655285755839778	0.790295179612789	-1.44743548833494	0.934065742346392	-7.12560141012741	-0.437847780320118
-0.0449279605623216	1.61529918744026	-1.32541381764501	-4.56361276857302	-2.89010367039496	-4.03057534893648	-8.40572572185208	-5.06155121347905	2.73745101044694	1.79847937740726	2.59255849181548	-11.4471442390098	-2.44969629005987	-2.73726356713126	-6.235465337775	-8.96553075969645	-5.50971128341065	-6.30631011857408
0.0722437190311354	0.0396448730202801	-3.24128368420614	-4.24893448724945	-2.59719524459426	-6.93801563581742	-8.73274847895422	-5.47028187877368	4.86984593972041	0.46342284029874	0.345789020766716	-13.05738738019	-3.65753406899399	-3.31265645852921	-8.49477151827	-8.27327919234638	-5.45561614868979	-9.76398384580004
0.652789227954505	-0.730111221174855	-2.26903813901665	-5.54366615932802	-4.33162101489051	-8.12880986372449	-6.50541847365376	-3.20657371099698	4.91326777221744	0.608197856722668	3.23262433936998	-16.6441162598751	-3.02538895307413	-4.77742178523904	-8.08972519767402	-6.27988712727853	-7.46304327551946	-6.2297893876771
